# # Created with Intravib version 0.0.9g 
# # Total reorganization energy:  2298.681041 cm^-1
     0.000   0.00000000e+00
     0.500   4.09236855e-03
     1.000   8.19378951e-03
     1.500   1.23042901e-02
     2.000   1.64238975e-02
     2.500   2.05526393e-02
     3.000   2.46905429e-02
     3.500   2.88376360e-02
     4.000   3.29939464e-02
     4.500   3.71595020e-02
     5.000   4.13343309e-02
     5.500   4.55184610e-02
     6.000   4.97119209e-02
     6.500   5.39147387e-02
     7.000   5.81269431e-02
     7.500   6.23485626e-02
     8.000   6.65796261e-02
     8.500   7.08201625e-02
     9.000   7.50702007e-02
     9.500   7.93297700e-02
    10.000   8.35988996e-02
    10.500   8.78776189e-02
    11.000   9.21659576e-02
    11.500   9.64639451e-02
    12.000   1.00771612e-01
    12.500   1.05088987e-01
    13.000   1.09416101e-01
    13.500   1.13752984e-01
    14.000   1.18099666e-01
    14.500   1.22456178e-01
    15.000   1.26822551e-01
    15.500   1.31198815e-01
    16.000   1.35585001e-01
    16.500   1.39981141e-01
    17.000   1.44387265e-01
    17.500   1.48803405e-01
    18.000   1.53229593e-01
    18.500   1.57665859e-01
    19.000   1.62112236e-01
    19.500   1.66568756e-01
    20.000   1.71035450e-01
    20.500   1.75512352e-01
    21.000   1.79999493e-01
    21.500   1.84496906e-01
    22.000   1.89004624e-01
    22.500   1.93522679e-01
    23.000   1.98051104e-01
    23.500   2.02589934e-01
    24.000   2.07139200e-01
    24.500   2.11698937e-01
    25.000   2.16269178e-01
    25.500   2.20849957e-01
    26.000   2.25441307e-01
    26.500   2.30043264e-01
    27.000   2.34655861e-01
    27.500   2.39279133e-01
    28.000   2.43913114e-01
    28.500   2.48557840e-01
    29.000   2.53213345e-01
    29.500   2.57879664e-01
    30.000   2.62556832e-01
    30.500   2.67244886e-01
    31.000   2.71943861e-01
    31.500   2.76653792e-01
    32.000   2.81374717e-01
    32.500   2.86106670e-01
    33.000   2.90849688e-01
    33.500   2.95603809e-01
    34.000   3.00369068e-01
    34.500   3.05145502e-01
    35.000   3.09933150e-01
    35.500   3.14732047e-01
    36.000   3.19542233e-01
    36.500   3.24363743e-01
    37.000   3.29196617e-01
    37.500   3.34040892e-01
    38.000   3.38896607e-01
    38.500   3.43763800e-01
    39.000   3.48642510e-01
    39.500   3.53532775e-01
    40.000   3.58434636e-01
    40.500   3.63348131e-01
    41.000   3.68273299e-01
    41.500   3.73210181e-01
    42.000   3.78158817e-01
    42.500   3.83119246e-01
    43.000   3.88091509e-01
    43.500   3.93075647e-01
    44.000   3.98071700e-01
    44.500   4.03079710e-01
    45.000   4.08099718e-01
    45.500   4.13131765e-01
    46.000   4.18175893e-01
    46.500   4.23232143e-01
    47.000   4.28300560e-01
    47.500   4.33381183e-01
    48.000   4.38474058e-01
    48.500   4.43579225e-01
    49.000   4.48696729e-01
    49.500   4.53826612e-01
    50.000   4.58968919e-01
    50.500   4.64123693e-01
    51.000   4.69290979e-01
    51.500   4.74470821e-01
    52.000   4.79663263e-01
    52.500   4.84868351e-01
    53.000   4.90086129e-01
    53.500   4.95316644e-01
    54.000   5.00559941e-01
    54.500   5.05816065e-01
    55.000   5.11085064e-01
    55.500   5.16366983e-01
    56.000   5.21661870e-01
    56.500   5.26969772e-01
    57.000   5.32290736e-01
    57.500   5.37624810e-01
    58.000   5.42972041e-01
    58.500   5.48332479e-01
    59.000   5.53706172e-01
    59.500   5.59093168e-01
    60.000   5.64493517e-01
    60.500   5.69907268e-01
    61.000   5.75334472e-01
    61.500   5.80775178e-01
    62.000   5.86229436e-01
    62.500   5.91697299e-01
    63.000   5.97178816e-01
    63.500   6.02674040e-01
    64.000   6.08183022e-01
    64.500   6.13705814e-01
    65.000   6.19242469e-01
    65.500   6.24793040e-01
    66.000   6.30357579e-01
    66.500   6.35936142e-01
    67.000   6.41528781e-01
    67.500   6.47135550e-01
    68.000   6.52756506e-01
    68.500   6.58391702e-01
    69.000   6.64041194e-01
    69.500   6.69705038e-01
    70.000   6.75383291e-01
    70.500   6.81076009e-01
    71.000   6.86783249e-01
    71.500   6.92505068e-01
    72.000   6.98241526e-01
    72.500   7.03992680e-01
    73.000   7.09758588e-01
    73.500   7.15539311e-01
    74.000   7.21334908e-01
    74.500   7.27145439e-01
    75.000   7.32970965e-01
    75.500   7.38811548e-01
    76.000   7.44667247e-01
    76.500   7.50538127e-01
    77.000   7.56424249e-01
    77.500   7.62325677e-01
    78.000   7.68242474e-01
    78.500   7.74174705e-01
    79.000   7.80122433e-01
    79.500   7.86085726e-01
    80.000   7.92064647e-01
    80.500   7.98059265e-01
    81.000   8.04069645e-01
    81.500   8.10095856e-01
    82.000   8.16137966e-01
    82.500   8.22196043e-01
    83.000   8.28270157e-01
    83.500   8.34360378e-01
    84.000   8.40466777e-01
    84.500   8.46589426e-01
    85.000   8.52728395e-01
    85.500   8.58883760e-01
    86.000   8.65055592e-01
    86.500   8.71243966e-01
    87.000   8.77448958e-01
    87.500   8.83670643e-01
    88.000   8.89909098e-01
    88.500   8.96164400e-01
    89.000   9.02436627e-01
    89.500   9.08725860e-01
    90.000   9.15032177e-01
    90.500   9.21355659e-01
    91.000   9.27696389e-01
    91.500   9.34054450e-01
    92.000   9.40429924e-01
    92.500   9.46822898e-01
    93.000   9.53233456e-01
    93.500   9.59661685e-01
    94.000   9.66107674e-01
    94.500   9.72571512e-01
    95.000   9.79053289e-01
    95.500   9.85553096e-01
    96.000   9.92071026e-01
    96.500   9.98607173e-01
    97.000   1.00516163e+00
    97.500   1.01173450e+00
    98.000   1.01832588e+00
    98.500   1.02493586e+00
    99.000   1.03156455e+00
    99.500   1.03821204e+00
   100.000   1.04487845e+00
   100.500   1.05156389e+00
   101.000   1.05826844e+00
   101.500   1.06499224e+00
   102.000   1.07173537e+00
   102.500   1.07849797e+00
   103.000   1.08528014e+00
   103.500   1.09208200e+00
   104.000   1.09890367e+00
   104.500   1.10574526e+00
   105.000   1.11260691e+00
   105.500   1.11948873e+00
   106.000   1.12639085e+00
   106.500   1.13331341e+00
   107.000   1.14025652e+00
   107.500   1.14722033e+00
   108.000   1.15420496e+00
   108.500   1.16121057e+00
   109.000   1.16823728e+00
   109.500   1.17528523e+00
   110.000   1.18235458e+00
   110.500   1.18944547e+00
   111.000   1.19655803e+00
   111.500   1.20369243e+00
   112.000   1.21084881e+00
   112.500   1.21802733e+00
   113.000   1.22522812e+00
   113.500   1.23245136e+00
   114.000   1.23969717e+00
   114.500   1.24696573e+00
   115.000   1.25425717e+00
   115.500   1.26157164e+00
   116.000   1.26890929e+00
   116.500   1.27627025e+00
   117.000   1.28365465e+00
   117.500   1.29106263e+00
   118.000   1.29849430e+00
   118.500   1.30594977e+00
   119.000   1.31342913e+00
   119.500   1.32093248e+00
   120.000   1.32845987e+00
   120.500   1.33601137e+00
   121.000   1.34358701e+00
   121.500   1.35118681e+00
   122.000   1.35881077e+00
   122.500   1.36645886e+00
   123.000   1.37413103e+00
   123.500   1.38182723e+00
   124.000   1.38954736e+00
   124.500   1.39729133e+00
   125.000   1.40505900e+00
   125.500   1.41285026e+00
   126.000   1.42066497e+00
   126.500   1.42850298e+00
   127.000   1.43636416e+00
   127.500   1.44424838e+00
   128.000   1.45215556e+00
   128.500   1.46008560e+00
   129.000   1.46803847e+00
   129.500   1.47601417e+00
   130.000   1.48401274e+00
   130.500   1.49203428e+00
   131.000   1.50007895e+00
   131.500   1.50814694e+00
   132.000   1.51623854e+00
   132.500   1.52435404e+00
   133.000   1.53249383e+00
   133.500   1.54065832e+00
   134.000   1.54884795e+00
   134.500   1.55706323e+00
   135.000   1.56530467e+00
   135.500   1.57357279e+00
   136.000   1.58186814e+00
   136.500   1.59019128e+00
   137.000   1.59854277e+00
   137.500   1.60692315e+00
   138.000   1.61533297e+00
   138.500   1.62377277e+00
   139.000   1.63224305e+00
   139.500   1.64074435e+00
   140.000   1.64927713e+00
   140.500   1.65784190e+00
   141.000   1.66643912e+00
   141.500   1.67506923e+00
   142.000   1.68373268e+00
   142.500   1.69242992e+00
   143.000   1.70116135e+00
   143.500   1.70992741e+00
   144.000   1.71872849e+00
   144.500   1.72756503e+00
   145.000   1.73643741e+00
   145.500   1.74534606e+00
   146.000   1.75429138e+00
   146.500   1.76327378e+00
   147.000   1.77229369e+00
   147.500   1.78135152e+00
   148.000   1.79044772e+00
   148.500   1.79958271e+00
   149.000   1.80875694e+00
   149.500   1.81797087e+00
   150.000   1.82722498e+00
   150.500   1.83651973e+00
   151.000   1.84585564e+00
   151.500   1.85523319e+00
   152.000   1.86465292e+00
   152.500   1.87411537e+00
   153.000   1.88362108e+00
   153.500   1.89317063e+00
   154.000   1.90276460e+00
   154.500   1.91240361e+00
   155.000   1.92208828e+00
   155.500   1.93181926e+00
   156.000   1.94159722e+00
   156.500   1.95142284e+00
   157.000   1.96129684e+00
   157.500   1.97121995e+00
   158.000   1.98119295e+00
   158.500   1.99121661e+00
   159.000   2.00129175e+00
   159.500   2.01141922e+00
   160.000   2.02159989e+00
   160.500   2.03183465e+00
   161.000   2.04212445e+00
   161.500   2.05247024e+00
   162.000   2.06287304e+00
   162.500   2.07333388e+00
   163.000   2.08385383e+00
   163.500   2.09443401e+00
   164.000   2.10507557e+00
   164.500   2.11577971e+00
   165.000   2.12654767e+00
   165.500   2.13738073e+00
   166.000   2.14828024e+00
   166.500   2.15924757e+00
   167.000   2.17028416e+00
   167.500   2.18139152e+00
   168.000   2.19257118e+00
   168.500   2.20382477e+00
   169.000   2.21515396e+00
   169.500   2.22656048e+00
   170.000   2.23804615e+00
   170.500   2.24961286e+00
   171.000   2.26126256e+00
   171.500   2.27299730e+00
   172.000   2.28481919e+00
   172.500   2.29673046e+00
   173.000   2.30873340e+00
   173.500   2.32083041e+00
   174.000   2.33302401e+00
   174.500   2.34531679e+00
   175.000   2.35771149e+00
   175.500   2.37021094e+00
   176.000   2.38281811e+00
   176.500   2.39553609e+00
   177.000   2.40836812e+00
   177.500   2.42131757e+00
   178.000   2.43438797e+00
   178.500   2.44758301e+00
   179.000   2.46090653e+00
   179.500   2.47436259e+00
   180.000   2.48795538e+00
   180.500   2.50168933e+00
   181.000   2.51556905e+00
   181.500   2.52959938e+00
   182.000   2.54378538e+00
   182.500   2.55813236e+00
   183.000   2.57264587e+00
   183.500   2.58733174e+00
   184.000   2.60219607e+00
   184.500   2.61724525e+00
   185.000   2.63248599e+00
   185.500   2.64792533e+00
   186.000   2.66357064e+00
   186.500   2.67942966e+00
   187.000   2.69551051e+00
   187.500   2.71182171e+00
   188.000   2.72837218e+00
   188.500   2.74517130e+00
   189.000   2.76222890e+00
   189.500   2.77955530e+00
   190.000   2.79716132e+00
   190.500   2.81505831e+00
   191.000   2.83325817e+00
   191.500   2.85177337e+00
   192.000   2.87061698e+00
   192.500   2.88980271e+00
   193.000   2.90934488e+00
   193.500   2.92925850e+00
   194.000   2.94955927e+00
   194.500   2.97026358e+00
   195.000   2.99138854e+00
   195.500   3.01295202e+00
   196.000   3.03497260e+00
   196.500   3.05746961e+00
   197.000   3.08046316e+00
   197.500   3.10397405e+00
   198.000   3.12802382e+00
   198.500   3.15263467e+00
   199.000   3.17782946e+00
   199.500   3.20363162e+00
   200.000   3.23006506e+00
   200.500   3.25715412e+00
   201.000   3.28492339e+00
   201.500   3.31339756e+00
   202.000   3.34260127e+00
   202.500   3.37255881e+00
   203.000   3.40329393e+00
   203.500   3.43482944e+00
   204.000   3.46718684e+00
   204.500   3.50038591e+00
   205.000   3.53444416e+00
   205.500   3.56937623e+00
   206.000   3.60519321e+00
   206.500   3.64190193e+00
   207.000   3.67950400e+00
   207.500   3.71799494e+00
   208.000   3.75736311e+00
   208.500   3.79758855e+00
   209.000   3.83864182e+00
   209.500   3.88048267e+00
   210.000   3.92305873e+00
   210.500   3.96630424e+00
   211.000   4.01013867e+00
   211.500   4.05446559e+00
   212.000   4.09917154e+00
   212.500   4.14412521e+00
   213.000   4.18917689e+00
   213.500   4.23415831e+00
   214.000   4.27888292e+00
   214.500   4.32314686e+00
   215.000   4.36673045e+00
   215.500   4.40940045e+00
   216.000   4.45091312e+00
   216.500   4.49101797e+00
   217.000   4.52946227e+00
   217.500   4.56599619e+00
   218.000   4.60037838e+00
   218.500   4.63238194e+00
   219.000   4.66180030e+00
   219.500   4.68845302e+00
   220.000   4.71219100e+00
   220.500   4.73290091e+00
   221.000   4.75050868e+00
   221.500   4.76498165e+00
   222.000   4.77632941e+00
   222.500   4.78460332e+00
   223.000   4.78989453e+00
   223.500   4.79233090e+00
   224.000   4.79207281e+00
   224.500   4.78930818e+00
   225.000   4.78424696e+00
   225.500   4.77711536e+00
   226.000   4.76815012e+00
   226.500   4.75759299e+00
   227.000   4.74568566e+00
   227.500   4.73266531e+00
   228.000   4.71876075e+00
   228.500   4.70418933e+00
   229.000   4.68915459e+00
   229.500   4.67384455e+00
   230.000   4.65843063e+00
   230.500   4.64306716e+00
   231.000   4.62789134e+00
   231.500   4.61302357e+00
   232.000   4.59856813e+00
   232.500   4.58461405e+00
   233.000   4.57123614e+00
   233.500   4.55849612e+00
   234.000   4.54644381e+00
   234.500   4.53511834e+00
   235.000   4.52454927e+00
   235.500   4.51475773e+00
   236.000   4.50575752e+00
   236.500   4.49755603e+00
   237.000   4.49015519e+00
   237.500   4.48355226e+00
   238.000   4.47774060e+00
   238.500   4.47271035e+00
   239.000   4.46844895e+00
   239.500   4.46494172e+00
   240.000   4.46217229e+00
   240.500   4.46012297e+00
   241.000   4.45877515e+00
   241.500   4.45810950e+00
   242.000   4.45810630e+00
   242.500   4.45874560e+00
   243.000   4.46000741e+00
   243.500   4.46187184e+00
   244.000   4.46431922e+00
   244.500   4.46733019e+00
   245.000   4.47088579e+00
   245.500   4.47496754e+00
   246.000   4.47955742e+00
   246.500   4.48463797e+00
   247.000   4.49019231e+00
   247.500   4.49620410e+00
   248.000   4.50265762e+00
   248.500   4.50953774e+00
   249.000   4.51682990e+00
   249.500   4.52452014e+00
   250.000   4.53259507e+00
   250.500   4.54104188e+00
   251.000   4.54984830e+00
   251.500   4.55900259e+00
   252.000   4.56849353e+00
   252.500   4.57831043e+00
   253.000   4.58844306e+00
   253.500   4.59888167e+00
   254.000   4.60961695e+00
   254.500   4.62064005e+00
   255.000   4.63194251e+00
   255.500   4.64351628e+00
   256.000   4.65535368e+00
   256.500   4.66744743e+00
   257.000   4.67979056e+00
   257.500   4.69237645e+00
   258.000   4.70519880e+00
   258.500   4.71825162e+00
   259.000   4.73152920e+00
   259.500   4.74502612e+00
   260.000   4.75873721e+00
   260.500   4.77265756e+00
   261.000   4.78678250e+00
   261.500   4.80110760e+00
   262.000   4.81562863e+00
   262.500   4.83034157e+00
   263.000   4.84524263e+00
   263.500   4.86032816e+00
   264.000   4.87559474e+00
   264.500   4.89103909e+00
   265.000   4.90665811e+00
   265.500   4.92244884e+00
   266.000   4.93840850e+00
   266.500   4.95453442e+00
   267.000   4.97082409e+00
   267.500   4.98727512e+00
   268.000   5.00388524e+00
   268.500   5.02065231e+00
   269.000   5.03757431e+00
   269.500   5.05464930e+00
   270.000   5.07187547e+00
   270.500   5.08925110e+00
   271.000   5.10677456e+00
   271.500   5.12444432e+00
   272.000   5.14225894e+00
   272.500   5.16021705e+00
   273.000   5.17831737e+00
   273.500   5.19655869e+00
   274.000   5.21493988e+00
   274.500   5.23345987e+00
   275.000   5.25211767e+00
   275.500   5.27091235e+00
   276.000   5.28984303e+00
   276.500   5.30890892e+00
   277.000   5.32810925e+00
   277.500   5.34744333e+00
   278.000   5.36691051e+00
   278.500   5.38651020e+00
   279.000   5.40624186e+00
   279.500   5.42610499e+00
   280.000   5.44609913e+00
   280.500   5.46622387e+00
   281.000   5.48647886e+00
   281.500   5.50686376e+00
   282.000   5.52737828e+00
   282.500   5.54802218e+00
   283.000   5.56879523e+00
   283.500   5.58969727e+00
   284.000   5.61072814e+00
   284.500   5.63188774e+00
   285.000   5.65317598e+00
   285.500   5.67459281e+00
   286.000   5.69613822e+00
   286.500   5.71781222e+00
   287.000   5.73961484e+00
   287.500   5.76154616e+00
   288.000   5.78360626e+00
   288.500   5.80579528e+00
   289.000   5.82811336e+00
   289.500   5.85056067e+00
   290.000   5.87313742e+00
   290.500   5.89584384e+00
   291.000   5.91868018e+00
   291.500   5.94164672e+00
   292.000   5.96474376e+00
   292.500   5.98797163e+00
   293.000   6.01133068e+00
   293.500   6.03482129e+00
   294.000   6.05844384e+00
   294.500   6.08219875e+00
   295.000   6.10608647e+00
   295.500   6.13010745e+00
   296.000   6.15426217e+00
   296.500   6.17855113e+00
   297.000   6.20297485e+00
   297.500   6.22753385e+00
   298.000   6.25222871e+00
   298.500   6.27705997e+00
   299.000   6.30202823e+00
   299.500   6.32713411e+00
   300.000   6.35237820e+00
   300.500   6.37776116e+00
   301.000   6.40328363e+00
   301.500   6.42894629e+00
   302.000   6.45474981e+00
   302.500   6.48069490e+00
   303.000   6.50678228e+00
   303.500   6.53301267e+00
   304.000   6.55938683e+00
   304.500   6.58590551e+00
   305.000   6.61256949e+00
   305.500   6.63937957e+00
   306.000   6.66633656e+00
   306.500   6.69344127e+00
   307.000   6.72069455e+00
   307.500   6.74809725e+00
   308.000   6.77565025e+00
   308.500   6.80335442e+00
   309.000   6.83121068e+00
   309.500   6.85921993e+00
   310.000   6.88738311e+00
   310.500   6.91570116e+00
   311.000   6.94417505e+00
   311.500   6.97280575e+00
   312.000   7.00159426e+00
   312.500   7.03054159e+00
   313.000   7.05964876e+00
   313.500   7.08891682e+00
   314.000   7.11834681e+00
   314.500   7.14793981e+00
   315.000   7.17769691e+00
   315.500   7.20761921e+00
   316.000   7.23770783e+00
   316.500   7.26796391e+00
   317.000   7.29838860e+00
   317.500   7.32898306e+00
   318.000   7.35974848e+00
   318.500   7.39068606e+00
   319.000   7.42179701e+00
   319.500   7.45308258e+00
   320.000   7.48454400e+00
   320.500   7.51618256e+00
   321.000   7.54799952e+00
   321.500   7.57999620e+00
   322.000   7.61217391e+00
   322.500   7.64453398e+00
   323.000   7.67707778e+00
   323.500   7.70980667e+00
   324.000   7.74272203e+00
   324.500   7.77582528e+00
   325.000   7.80911784e+00
   325.500   7.84260116e+00
   326.000   7.87627669e+00
   326.500   7.91014592e+00
   327.000   7.94421034e+00
   327.500   7.97847147e+00
   328.000   8.01293086e+00
   328.500   8.04759005e+00
   329.000   8.08245062e+00
   329.500   8.11751418e+00
   330.000   8.15278233e+00
   330.500   8.18825671e+00
   331.000   8.22393898e+00
   331.500   8.25983082e+00
   332.000   8.29593392e+00
   332.500   8.33225001e+00
   333.000   8.36878083e+00
   333.500   8.40552814e+00
   334.000   8.44249372e+00
   334.500   8.47967939e+00
   335.000   8.51708698e+00
   335.500   8.55471833e+00
   336.000   8.59257532e+00
   336.500   8.63065986e+00
   337.000   8.66897386e+00
   337.500   8.70751928e+00
   338.000   8.74629808e+00
   338.500   8.78531227e+00
   339.000   8.82456385e+00
   339.500   8.86405489e+00
   340.000   8.90378744e+00
   340.500   8.94376362e+00
   341.000   8.98398554e+00
   341.500   9.02445535e+00
   342.000   9.06517524e+00
   342.500   9.10614741e+00
   343.000   9.14737409e+00
   343.500   9.18885755e+00
   344.000   9.23060008e+00
   344.500   9.27260399e+00
   345.000   9.31487163e+00
   345.500   9.35740539e+00
   346.000   9.40020768e+00
   346.500   9.44328093e+00
   347.000   9.48662761e+00
   347.500   9.53025023e+00
   348.000   9.57415133e+00
   348.500   9.61833347e+00
   349.000   9.66279926e+00
   349.500   9.70755132e+00
   350.000   9.75259233e+00
   350.500   9.79792500e+00
   351.000   9.84355205e+00
   351.500   9.88947627e+00
   352.000   9.93570047e+00
   352.500   9.98222749e+00
   353.000   1.00290602e+01
   353.500   1.00762016e+01
   354.000   1.01236546e+01
   354.500   1.01714221e+01
   355.000   1.02195073e+01
   355.500   1.02679133e+01
   356.000   1.03166430e+01
   356.500   1.03656998e+01
   357.000   1.04150868e+01
   357.500   1.04648073e+01
   358.000   1.05148645e+01
   358.500   1.05652619e+01
   359.000   1.06160027e+01
   359.500   1.06670905e+01
   360.000   1.07185286e+01
   360.500   1.07703206e+01
   361.000   1.08224702e+01
   361.500   1.08749808e+01
   362.000   1.09278563e+01
   362.500   1.09811002e+01
   363.000   1.10347164e+01
   363.500   1.10887088e+01
   364.000   1.11430810e+01
   364.500   1.11978372e+01
   365.000   1.12529813e+01
   365.500   1.13085172e+01
   366.000   1.13644492e+01
   366.500   1.14207813e+01
   367.000   1.14775178e+01
   367.500   1.15346629e+01
   368.000   1.15922209e+01
   368.500   1.16501962e+01
   369.000   1.17085932e+01
   369.500   1.17674164e+01
   370.000   1.18266704e+01
   370.500   1.18863597e+01
   371.000   1.19464891e+01
   371.500   1.20070631e+01
   372.000   1.20680868e+01
   372.500   1.21295647e+01
   373.000   1.21915020e+01
   373.500   1.22539035e+01
   374.000   1.23167744e+01
   374.500   1.23801196e+01
   375.000   1.24439444e+01
   375.500   1.25082541e+01
   376.000   1.25730539e+01
   376.500   1.26383493e+01
   377.000   1.27041457e+01
   377.500   1.27704488e+01
   378.000   1.28372643e+01
   378.500   1.29045978e+01
   379.000   1.29724554e+01
   379.500   1.30408429e+01
   380.000   1.31097665e+01
   380.500   1.31792324e+01
   381.000   1.32492470e+01
   381.500   1.33198167e+01
   382.000   1.33909480e+01
   382.500   1.34626478e+01
   383.000   1.35349229e+01
   383.500   1.36077802e+01
   384.000   1.36812269e+01
   384.500   1.37552701e+01
   385.000   1.38299173e+01
   385.500   1.39051758e+01
   386.000   1.39810534e+01
   386.500   1.40575578e+01
   387.000   1.41346968e+01
   387.500   1.42124784e+01
   388.000   1.42909107e+01
   388.500   1.43700020e+01
   389.000   1.44497606e+01
   389.500   1.45301950e+01
   390.000   1.46113139e+01
   390.500   1.46931261e+01
   391.000   1.47756404e+01
   391.500   1.48588659e+01
   392.000   1.49428118e+01
   392.500   1.50274876e+01
   393.000   1.51129026e+01
   393.500   1.51990667e+01
   394.000   1.52859896e+01
   394.500   1.53736814e+01
   395.000   1.54621522e+01
   395.500   1.55514125e+01
   396.000   1.56414728e+01
   396.500   1.57323438e+01
   397.000   1.58240365e+01
   397.500   1.59165621e+01
   398.000   1.60099319e+01
   398.500   1.61041576e+01
   399.000   1.61992507e+01
   399.500   1.62952235e+01
   400.000   1.63920881e+01
   400.500   1.64898570e+01
   401.000   1.65885430e+01
   401.500   1.66881589e+01
   402.000   1.67887181e+01
   402.500   1.68902339e+01
   403.000   1.69927202e+01
   403.500   1.70961911e+01
   404.000   1.72006607e+01
   404.500   1.73061437e+01
   405.000   1.74126550e+01
   405.500   1.75202099e+01
   406.000   1.76288238e+01
   406.500   1.77385126e+01
   407.000   1.78492924e+01
   407.500   1.79611799e+01
   408.000   1.80741919e+01
   408.500   1.81883456e+01
   409.000   1.83036587e+01
   409.500   1.84201492e+01
   410.000   1.85378354e+01
   410.500   1.86567362e+01
   411.000   1.87768708e+01
   411.500   1.88982588e+01
   412.000   1.90209204e+01
   412.500   1.91448762e+01
   413.000   1.92701471e+01
   413.500   1.93967547e+01
   414.000   1.95247211e+01
   414.500   1.96540688e+01
   415.000   1.97848209e+01
   415.500   1.99170010e+01
   416.000   2.00506334e+01
   416.500   2.01857429e+01
   417.000   2.03223549e+01
   417.500   2.04604954e+01
   418.000   2.06001913e+01
   418.500   2.07414698e+01
   419.000   2.08843591e+01
   419.500   2.10288880e+01
   420.000   2.11750860e+01
   420.500   2.13229835e+01
   421.000   2.14726116e+01
   421.500   2.16240024e+01
   422.000   2.17771886e+01
   422.500   2.19322041e+01
   423.000   2.20890834e+01
   423.500   2.22478623e+01
   424.000   2.24085773e+01
   424.500   2.25712661e+01
   425.000   2.27359676e+01
   425.500   2.29027215e+01
   426.000   2.30715690e+01
   426.500   2.32425522e+01
   427.000   2.34157147e+01
   427.500   2.35911014e+01
   428.000   2.37687584e+01
   428.500   2.39487333e+01
   429.000   2.41310752e+01
   429.500   2.43158348e+01
   430.000   2.45030642e+01
   430.500   2.46928175e+01
   431.000   2.48851501e+01
   431.500   2.50801197e+01
   432.000   2.52777854e+01
   432.500   2.54782088e+01
   433.000   2.56814530e+01
   433.500   2.58875838e+01
   434.000   2.60966687e+01
   434.500   2.63087781e+01
   435.000   2.65239843e+01
   435.500   2.67423626e+01
   436.000   2.69639908e+01
   436.500   2.71889493e+01
   437.000   2.74173216e+01
   437.500   2.76491943e+01
   438.000   2.78846570e+01
   438.500   2.81238027e+01
   439.000   2.83667278e+01
   439.500   2.86135322e+01
   440.000   2.88643197e+01
   440.500   2.91191980e+01
   441.000   2.93782786e+01
   441.500   2.96416776e+01
   442.000   2.99095151e+01
   442.500   3.01819160e+01
   443.000   3.04590096e+01
   443.500   3.07409304e+01
   444.000   3.10278177e+01
   444.500   3.13198159e+01
   445.000   3.16170748e+01
   445.500   3.19197496e+01
   446.000   3.22280010e+01
   446.500   3.25419952e+01
   447.000   3.28619042e+01
   447.500   3.31879056e+01
   448.000   3.35201828e+01
   448.500   3.38589245e+01
   449.000   3.42043252e+01
   449.500   3.45565844e+01
   450.000   3.49159067e+01
   450.500   3.52825011e+01
   451.000   3.56565808e+01
   451.500   3.60383624e+01
   452.000   3.64280648e+01
   452.500   3.68259086e+01
   453.000   3.72321147e+01
   453.500   3.76469028e+01
   454.000   3.80704894e+01
   454.500   3.85030861e+01
   455.000   3.89448969e+01
   455.500   3.93961154e+01
   456.000   3.98569215e+01
   456.500   4.03274776e+01
   457.000   4.08079244e+01
   457.500   4.12983759e+01
   458.000   4.17989145e+01
   458.500   4.23095846e+01
   459.000   4.28303864e+01
   459.500   4.33612689e+01
   460.000   4.39021227e+01
   460.500   4.44527723e+01
   461.000   4.50129680e+01
   461.500   4.55823789e+01
   462.000   4.61605849e+01
   462.500   4.67470704e+01
   463.000   4.73412184e+01
   463.500   4.79423070e+01
   464.000   4.85495069e+01
   464.500   4.91618826e+01
   465.000   4.97783957e+01
   465.500   5.03979131e+01
   466.000   5.10192179e+01
   466.500   5.16410261e+01
   467.000   5.22620074e+01
   467.500   5.28808099e+01
   468.000   5.34960900e+01
   468.500   5.41065446e+01
   469.000   5.47109472e+01
   469.500   5.53081832e+01
   470.000   5.58972865e+01
   470.500   5.64774729e+01
   471.000   5.70481701e+01
   471.500   5.76090421e+01
   472.000   5.81600067e+01
   472.500   5.87012453e+01
   473.000   5.92332040e+01
   473.500   5.97565866e+01
   474.000   6.02723391e+01
   474.500   6.07816278e+01
   475.000   6.12858110e+01
   475.500   6.17864072e+01
   476.000   6.22850603e+01
   476.500   6.27835044e+01
   477.000   6.32835293e+01
   477.500   6.37869482e+01
   478.000   6.42955684e+01
   478.500   6.48111662e+01
   479.000   6.53354656e+01
   479.500   6.58701224e+01
   480.000   6.64167120e+01
   480.500   6.69767212e+01
   481.000   6.75515445e+01
   481.500   6.81424827e+01
   482.000   6.87507451e+01
   482.500   6.93774529e+01
   483.000   7.00236450e+01
   483.500   7.06902850e+01
   484.000   7.13782683e+01
   484.500   7.20884304e+01
   485.000   7.28215551e+01
   485.500   7.35783827e+01
   486.000   7.43596180e+01
   486.500   7.51659377e+01
   487.000   7.59979981e+01
   487.500   7.68564418e+01
   488.000   7.77419039e+01
   488.500   7.86550178e+01
   489.000   7.95964212e+01
   489.500   8.05667605e+01
   490.000   8.15666955e+01
   490.500   8.25969040e+01
   491.000   8.36580852e+01
   491.500   8.47509637e+01
   492.000   8.58762927e+01
   492.500   8.70348570e+01
   493.000   8.82274762e+01
   493.500   8.94550076e+01
   494.000   9.07183487e+01
   494.500   9.20184399e+01
   495.000   9.33562672e+01
   495.500   9.47328648e+01
   496.000   9.61493173e+01
   496.500   9.76067631e+01
   497.000   9.91063961e+01
   497.500   1.00649469e+02
   498.000   1.02237296e+02
   498.500   1.03871256e+02
   499.000   1.05552795e+02
   499.500   1.07283428e+02
   500.000   1.09064746e+02
   500.500   1.10898417e+02
   501.000   1.12786187e+02
   501.500   1.14729889e+02
   502.000   1.16731445e+02
   502.500   1.18792867e+02
   503.000   1.20916267e+02
   503.500   1.23103857e+02
   504.000   1.25357957e+02
   504.500   1.27680996e+02
   505.000   1.30075525e+02
   505.500   1.32544214e+02
   506.000   1.35089864e+02
   506.500   1.37715411e+02
   507.000   1.40423934e+02
   507.500   1.43218661e+02
   508.000   1.46102977e+02
   508.500   1.49080429e+02
   509.000   1.52154742e+02
   509.500   1.55329817e+02
   510.000   1.58609750e+02
   510.500   1.61998833e+02
   511.000   1.65501570e+02
   511.500   1.69122683e+02
   512.000   1.72867126e+02
   512.500   1.76740093e+02
   513.000   1.80747032e+02
   513.500   1.84893655e+02
   514.000   1.89185949e+02
   514.500   1.93630191e+02
   515.000   1.98232961e+02
   515.500   2.03001149e+02
   516.000   2.07941973e+02
   516.500   2.13062991e+02
   517.000   2.18372111e+02
   517.500   2.23877605e+02
   518.000   2.29588116e+02
   518.500   2.35512676e+02
   519.000   2.41660707e+02
   519.500   2.48042034e+02
   520.000   2.54666887e+02
   520.500   2.61545907e+02
   521.000   2.68690144e+02
   521.500   2.76111053e+02
   522.000   2.83820487e+02
   522.500   2.91830679e+02
   523.000   3.00154229e+02
   523.500   3.08804064e+02
   524.000   3.17793413e+02
   524.500   3.27135746e+02
   525.000   3.36844721e+02
   525.500   3.46934103e+02
   526.000   3.57417672e+02
   526.500   3.68309108e+02
   527.000   3.79621857e+02
   527.500   3.91368971e+02
   528.000   4.03562911e+02
   528.500   4.16215333e+02
   529.000   4.29336825e+02
   529.500   4.42936610e+02
   530.000   4.57022209e+02
   530.500   4.71599053e+02
   531.000   4.86670050e+02
   531.500   5.02235100e+02
   532.000   5.18290566e+02
   532.500   5.34828688e+02
   533.000   5.51836956e+02
   533.500   5.69297446e+02
   534.000   5.87186119e+02
   534.500   6.05472117e+02
   535.000   6.24117050e+02
   535.500   6.43074320e+02
   536.000   6.62288494e+02
   536.500   6.81694781e+02
   537.000   7.01218631e+02
   537.500   7.20775523e+02
   538.000   7.40270982e+02
   538.500   7.59600874e+02
   539.000   7.78652028e+02
   539.500   7.97303236e+02
   540.000   8.15426644e+02
   540.500   8.32889574e+02
   541.000   8.49556744e+02
   541.500   8.65292884e+02
   542.000   8.79965667e+02
   542.500   8.93448880e+02
   543.000   9.05625718e+02
   543.500   9.16392059e+02
   544.000   9.25659571e+02
   544.500   9.33358499e+02
   545.000   9.39439962e+02
   545.500   9.43877658e+02
   546.000   9.46668851e+02
   546.500   9.47834600e+02
   547.000   9.47419213e+02
   547.500   9.45488956e+02
   548.000   9.42130104e+02
   548.500   9.37446452e+02
   549.000   9.31556409e+02
   549.500   9.24589856e+02
   550.000   9.16684895e+02
   550.500   9.07984659e+02
   551.000   8.98634288e+02
   551.500   8.88778179e+02
   552.000   8.78557583e+02
   552.500   8.68108590e+02
   553.000   8.57560516e+02
   553.500   8.47034691e+02
   554.000   8.36643618e+02
   554.500   8.26490472e+02
   555.000   8.16668892e+02
   555.500   8.07263010e+02
   556.000   7.98347680e+02
   556.500   7.89988843e+02
   557.000   7.82243999e+02
   557.500   7.75162727e+02
   558.000   7.68787249e+02
   558.500   7.63152965e+02
   559.000   7.58288983e+02
   559.500   7.54218590e+02
   560.000   7.50959661e+02
   560.500   7.48524998e+02
   561.000   7.46922590e+02
   561.500   7.46155779e+02
   562.000   7.46223344e+02
   562.500   7.47119488e+02
   563.000   7.48833738e+02
   563.500   7.51350760e+02
   564.000   7.54650084e+02
   564.500   7.58705769e+02
   565.000   7.63485990e+02
   565.500   7.68952584e+02
   566.000   7.75060568e+02
   566.500   7.81757635e+02
   567.000   7.88983688e+02
   567.500   7.96670405e+02
   568.000   8.04740908e+02
   568.500   8.13109553e+02
   569.000   8.21681898e+02
   569.500   8.30354891e+02
   570.000   8.39017329e+02
   570.500   8.47550618e+02
   571.000   8.55829887e+02
   571.500   8.63725454e+02
   572.000   8.71104667e+02
   572.500   8.77834100e+02
   573.000   8.83782048e+02
   573.500   8.88821279e+02
   574.000   8.92831930e+02
   574.500   8.95704444e+02
   575.000   8.97342410e+02
   575.500   8.97665165e+02
   576.000   8.96610031e+02
   576.500   8.94134047e+02
   577.000   8.90215105e+02
   577.500   8.84852416e+02
   578.000   8.78066288e+02
   578.500   8.69897217e+02
   579.000   8.60404358e+02
   579.500   8.49663463e+02
   580.000   8.37764401e+02
   580.500   8.24808398e+02
   581.000   8.10905143e+02
   581.500   7.96169874e+02
   582.000   7.80720590e+02
   582.500   7.64675469e+02
   583.000   7.48150577e+02
   583.500   7.31257910e+02
   584.000   7.14103801e+02
   584.500   6.96787692e+02
   585.000   6.79401256e+02
   585.500   6.62027838e+02
   586.000   6.44742186e+02
   586.500   6.27610425e+02
   587.000   6.10690227e+02
   587.500   5.94031142e+02
   588.000   5.77675043e+02
   588.500   5.61656658e+02
   589.000   5.46004143e+02
   589.500   5.30739692e+02
   590.000   5.15880142e+02
   590.500   5.01437571e+02
   591.000   4.87419871e+02
   591.500   4.73831289e+02
   592.000   4.60672927e+02
   592.500   4.47943208e+02
   593.000   4.35638290e+02
   593.500   4.23752446e+02
   594.000   4.12278398e+02
   594.500   4.01207617e+02
   595.000   3.90530579e+02
   595.500   3.80236994e+02
   596.000   3.70316005e+02
   596.500   3.60756351e+02
   597.000   3.51546515e+02
   597.500   3.42674843e+02
   598.000   3.34129648e+02
   598.500   3.25899293e+02
   599.000   3.17972263e+02
   599.500   3.10337218e+02
   600.000   3.02983043e+02
   600.500   2.95898882e+02
   601.000   2.89074165e+02
   601.500   2.82498632e+02
   602.000   2.76162341e+02
   602.500   2.70055685e+02
   603.000   2.64169393e+02
   603.500   2.58494536e+02
   604.000   2.53022520e+02
   604.500   2.47745090e+02
   605.000   2.42654319e+02
   605.500   2.37742606e+02
   606.000   2.33002665e+02
   606.500   2.28427519e+02
   607.000   2.24010488e+02
   607.500   2.19745183e+02
   608.000   2.15625490e+02
   608.500   2.11645568e+02
   609.000   2.07799831e+02
   609.500   2.04082943e+02
   610.000   2.00489803e+02
   610.500   1.97015542e+02
   611.000   1.93655505e+02
   611.500   1.90405247e+02
   612.000   1.87260525e+02
   612.500   1.84217281e+02
   613.000   1.81271643e+02
   613.500   1.78419910e+02
   614.000   1.75658547e+02
   614.500   1.72984176e+02
   615.000   1.70393571e+02
   615.500   1.67883647e+02
   616.000   1.65451456e+02
   616.500   1.63094179e+02
   617.000   1.60809124e+02
   617.500   1.58593712e+02
   618.000   1.56445480e+02
   618.500   1.54362071e+02
   619.000   1.52341228e+02
   619.500   1.50380795e+02
   620.000   1.48478704e+02
   620.500   1.46632977e+02
   621.000   1.44841721e+02
   621.500   1.43103121e+02
   622.000   1.41415441e+02
   622.500   1.39777013e+02
   623.000   1.38186244e+02
   623.500   1.36641602e+02
   624.000   1.35141622e+02
   624.500   1.33684896e+02
   625.000   1.32270076e+02
   625.500   1.30895867e+02
   626.000   1.29561027e+02
   626.500   1.28264364e+02
   627.000   1.27004733e+02
   627.500   1.25781036e+02
   628.000   1.24592217e+02
   628.500   1.23437263e+02
   629.000   1.22315201e+02
   629.500   1.21225093e+02
   630.000   1.20166042e+02
   630.500   1.19137183e+02
   631.000   1.18137684e+02
   631.500   1.17166748e+02
   632.000   1.16223605e+02
   632.500   1.15307516e+02
   633.000   1.14417772e+02
   633.500   1.13553687e+02
   634.000   1.12714604e+02
   634.500   1.11899889e+02
   635.000   1.11108934e+02
   635.500   1.10341150e+02
   636.000   1.09595974e+02
   636.500   1.08872862e+02
   637.000   1.08171289e+02
   637.500   1.07490752e+02
   638.000   1.06830766e+02
   638.500   1.06190863e+02
   639.000   1.05570592e+02
   639.500   1.04969520e+02
   640.000   1.04387229e+02
   640.500   1.03823317e+02
   641.000   1.03277397e+02
   641.500   1.02749095e+02
   642.000   1.02238052e+02
   642.500   1.01743922e+02
   643.000   1.01266371e+02
   643.500   1.00805080e+02
   644.000   1.00359738e+02
   644.500   9.99300498e+01
   645.000   9.95157278e+01
   645.500   9.91164970e+01
   646.000   9.87320925e+01
   646.500   9.83622596e+01
   647.000   9.80067533e+01
   647.500   9.76653380e+01
   648.000   9.73377874e+01
   648.500   9.70238842e+01
   649.000   9.67234195e+01
   649.500   9.64361930e+01
   650.000   9.61620125e+01
   650.500   9.59006936e+01
   651.000   9.56520599e+01
   651.500   9.54159421e+01
   652.000   9.51921784e+01
   652.500   9.49806142e+01
   653.000   9.47811017e+01
   653.500   9.45934998e+01
   654.000   9.44176741e+01
   654.500   9.42534967e+01
   655.000   9.41008457e+01
   655.500   9.39596056e+01
   656.000   9.38296669e+01
   656.500   9.37109260e+01
   657.000   9.36032849e+01
   657.500   9.35066514e+01
   658.000   9.34209391e+01
   658.500   9.33460666e+01
   659.000   9.32819583e+01
   659.500   9.32285436e+01
   660.000   9.31857572e+01
   660.500   9.31535392e+01
   661.000   9.31318344e+01
   661.500   9.31205928e+01
   662.000   9.31197694e+01
   662.500   9.31293240e+01
   663.000   9.31492213e+01
   663.500   9.31794310e+01
   664.000   9.32199274e+01
   664.500   9.32706895e+01
   665.000   9.33317014e+01
   665.500   9.34029514e+01
   666.000   9.34844329e+01
   666.500   9.35761440e+01
   667.000   9.36780873e+01
   667.500   9.37902702e+01
   668.000   9.39127048e+01
   668.500   9.40454080e+01
   669.000   9.41884012e+01
   669.500   9.43417107e+01
   670.000   9.45053678e+01
   670.500   9.46794082e+01
   671.000   9.48638728e+01
   671.500   9.50588072e+01
   672.000   9.52642621e+01
   672.500   9.54802931e+01
   673.000   9.57069608e+01
   673.500   9.59443312e+01
   674.000   9.61924753e+01
   674.500   9.64514694e+01
   675.000   9.67213952e+01
   675.500   9.70023399e+01
   676.000   9.72943964e+01
   676.500   9.75976630e+01
   677.000   9.79122440e+01
   677.500   9.82382495e+01
   678.000   9.85757958e+01
   678.500   9.89250054e+01
   679.000   9.92860069e+01
   679.500   9.96589356e+01
   680.000   1.00043934e+02
   680.500   1.00441149e+02
   681.000   1.00850739e+02
   681.500   1.01272865e+02
   682.000   1.01707699e+02
   682.500   1.02155419e+02
   683.000   1.02616209e+02
   683.500   1.03090266e+02
   684.000   1.03577791e+02
   684.500   1.04078996e+02
   685.000   1.04594101e+02
   685.500   1.05123335e+02
   686.000   1.05666938e+02
   686.500   1.06225159e+02
   687.000   1.06798257e+02
   687.500   1.07386503e+02
   688.000   1.07990177e+02
   688.500   1.08609572e+02
   689.000   1.09244994e+02
   689.500   1.09896757e+02
   690.000   1.10565193e+02
   690.500   1.11250645e+02
   691.000   1.11953470e+02
   691.500   1.12674038e+02
   692.000   1.13412738e+02
   692.500   1.14169970e+02
   693.000   1.14946154e+02
   693.500   1.15741725e+02
   694.000   1.16557137e+02
   694.500   1.17392860e+02
   695.000   1.18249386e+02
   695.500   1.19127225e+02
   696.000   1.20026910e+02
   696.500   1.20948994e+02
   697.000   1.21894053e+02
   697.500   1.22862686e+02
   698.000   1.23855518e+02
   698.500   1.24873199e+02
   699.000   1.25916405e+02
   699.500   1.26985841e+02
   700.000   1.28082239e+02
   700.500   1.29206363e+02
   701.000   1.30359007e+02
   701.500   1.31540996e+02
   702.000   1.32753192e+02
   702.500   1.33996489e+02
   703.000   1.35271815e+02
   703.500   1.36580140e+02
   704.000   1.37922466e+02
   704.500   1.39299838e+02
   705.000   1.40713339e+02
   705.500   1.42164093e+02
   706.000   1.43653264e+02
   706.500   1.45182059e+02
   707.000   1.46751725e+02
   707.500   1.48363551e+02
   708.000   1.50018867e+02
   708.500   1.51719042e+02
   709.000   1.53465484e+02
   709.500   1.55259637e+02
   710.000   1.57102976e+02
   710.500   1.58997009e+02
   711.000   1.60943266e+02
   711.500   1.62943294e+02
   712.000   1.64998654e+02
   712.500   1.67110907e+02
   713.000   1.69281606e+02
   713.500   1.71512281e+02
   714.000   1.73804427e+02
   714.500   1.76159485e+02
   715.000   1.78578820e+02
   715.500   1.81063702e+02
   716.000   1.83615275e+02
   716.500   1.86234530e+02
   717.000   1.88922272e+02
   717.500   1.91679081e+02
   718.000   1.94505273e+02
   718.500   1.97400859e+02
   719.000   2.00365492e+02
   719.500   2.03398428e+02
   720.000   2.06498468e+02
   720.500   2.09663914e+02
   721.000   2.12892521e+02
   721.500   2.16181452e+02
   722.000   2.19527241e+02
   722.500   2.22925769e+02
   723.000   2.26372244e+02
   723.500   2.29861206e+02
   724.000   2.33386550e+02
   724.500   2.36941562e+02
   725.000   2.40519001e+02
   725.500   2.44111188e+02
   726.000   2.47710142e+02
   726.500   2.51307737e+02
   727.000   2.54895886e+02
   727.500   2.58466753e+02
   728.000   2.62012983e+02
   728.500   2.65527936e+02
   729.000   2.69005923e+02
   729.500   2.72442440e+02
   730.000   2.75834363e+02
   730.500   2.79180124e+02
   731.000   2.82479842e+02
   731.500   2.85735396e+02
   732.000   2.88950454e+02
   732.500   2.92130442e+02
   733.000   2.95282460e+02
   733.500   2.98415148e+02
   734.000   3.01538520e+02
   734.500   3.04663762e+02
   735.000   3.07803009e+02
   735.500   3.10969124e+02
   736.000   3.14175471e+02
   736.500   3.17435708e+02
   737.000   3.20763588e+02
   737.500   3.24172802e+02
   738.000   3.27676832e+02
   738.500   3.31288848e+02
   739.000   3.35021628e+02
   739.500   3.38887503e+02
   740.000   3.42898338e+02
   740.500   3.47065521e+02
   741.000   3.51399987e+02
   741.500   3.55912242e+02
   742.000   3.60612411e+02
   742.500   3.65510286e+02
   743.000   3.70615390e+02
   743.500   3.75937036e+02
   744.000   3.81484394e+02
   744.500   3.87266557e+02
   745.000   3.93292605e+02
   745.500   3.99571669e+02
   746.000   4.06112996e+02
   746.500   4.12926007e+02
   747.000   4.20020355e+02
   747.500   4.27405980e+02
   748.000   4.35093165e+02
   748.500   4.43092585e+02
   749.000   4.51415357e+02
   749.500   4.60073089e+02
   750.000   4.69077924e+02
   750.500   4.78442588e+02
   751.000   4.88180434e+02
   751.500   4.98305487e+02
   752.000   5.08832486e+02
   752.500   5.19776927e+02
   753.000   5.31155112e+02
   753.500   5.42984186e+02
   754.000   5.55282186e+02
   754.500   5.68068083e+02
   755.000   5.81361825e+02
   755.500   5.95184384e+02
   756.000   6.09557801e+02
   756.500   6.24505227e+02
   757.000   6.40050968e+02
   757.500   6.56220527e+02
   758.000   6.73040646e+02
   758.500   6.90539344e+02
   759.000   7.08745953e+02
   759.500   7.27691149e+02
   760.000   7.47406978e+02
   760.500   7.67926879e+02
   761.000   7.89285692e+02
   761.500   8.11519663e+02
   762.000   8.34666433e+02
   762.500   8.58765011e+02
   763.000   8.83855730e+02
   763.500   9.09980185e+02
   764.000   9.37181139e+02
   764.500   9.65502403e+02
   765.000   9.94988676e+02
   765.500   1.02568535e+03
   766.000   1.05763826e+03
   766.500   1.09089338e+03
   767.000   1.12549645e+03
   767.500   1.16149253e+03
   768.000   1.19892548e+03
   768.500   1.23783734e+03
   769.000   1.27826755e+03
   769.500   1.32025217e+03
   770.000   1.36382284e+03
   770.500   1.40900565e+03
   771.000   1.45581987e+03
   771.500   1.50427647e+03
   772.000   1.55437653e+03
   772.500   1.60610936e+03
   773.000   1.65945055e+03
   773.500   1.71435981e+03
   774.000   1.77077861e+03
   774.500   1.82862777e+03
   775.000   1.88780488e+03
   775.500   1.94818176e+03
   776.000   2.00960190e+03
   776.500   2.07187805e+03
   777.000   2.13479011e+03
   777.500   2.19808329e+03
   778.000   2.26146696e+03
   778.500   2.32461405e+03
   779.000   2.38716146e+03
   779.500   2.44871147e+03
   780.000   2.50883446e+03
   780.500   2.56707289e+03
   781.000   2.62294690e+03
   781.500   2.67596129e+03
   782.000   2.72561405e+03
   782.500   2.77140617e+03
   783.000   2.81285254e+03
   783.500   2.84949355e+03
   784.000   2.88090703e+03
   784.500   2.90671988e+03
   785.000   2.92661896e+03
   785.500   2.94036058e+03
   786.000   2.94777813e+03
   786.500   2.94878733e+03
   787.000   2.94338892e+03
   787.500   2.93166844e+03
   788.000   2.91379332e+03
   788.500   2.89000735e+03
   789.000   2.86062283e+03
   789.500   2.82601098e+03
   790.000   2.78659097e+03
   790.500   2.74281838e+03
   791.000   2.69517332e+03
   791.500   2.64414905e+03
   792.000   2.59024123e+03
   792.500   2.53393840e+03
   793.000   2.47571370e+03
   793.500   2.41601801e+03
   794.000   2.35527472e+03
   794.500   2.29387578e+03
   795.000   2.23217916e+03
   795.500   2.17050756e+03
   796.000   2.10914806e+03
   796.500   2.04835266e+03
   797.000   1.98833954e+03
   797.500   1.92929477e+03
   798.000   1.87137443e+03
   798.500   1.81470692e+03
   799.000   1.75939547e+03
   799.500   1.70552058e+03
   800.000   1.65314255e+03
   800.500   1.60230379e+03
   801.000   1.55303111e+03
   801.500   1.50533782e+03
   802.000   1.45922563e+03
   802.500   1.41468644e+03
   803.000   1.37170393e+03
   803.500   1.33025492e+03
   804.000   1.29031072e+03
   804.500   1.25183814e+03
   805.000   1.21480053e+03
   805.500   1.17915854e+03
   806.000   1.14487093e+03
   806.500   1.11189508e+03
   807.000   1.08018762e+03
   807.500   1.04970477e+03
   808.000   1.02040277e+03
   808.500   9.92238166e+02
   809.000   9.65168059e+02
   809.500   9.39150300e+02
   810.000   9.14143654e+02
   810.500   8.90107925e+02
   811.000   8.67004052e+02
   811.500   8.44794173e+02
   812.000   8.23441681e+02
   812.500   8.02911246e+02
   813.000   7.83168835e+02
   813.500   7.64181711e+02
   814.000   7.45918432e+02
   814.500   7.28348826e+02
   815.000   7.11443978e+02
   815.500   6.95176195e+02
   816.000   6.79518982e+02
   816.500   6.64447001e+02
   817.000   6.49936037e+02
   817.500   6.35962960e+02
   818.000   6.22505689e+02
   818.500   6.09543146e+02
   819.000   5.97055221e+02
   819.500   5.85022732e+02
   820.000   5.73427388e+02
   820.500   5.62251746e+02
   821.000   5.51479181e+02
   821.500   5.41093842e+02
   822.000   5.31080626e+02
   822.500   5.21425137e+02
   823.000   5.12113657e+02
   823.500   5.03133114e+02
   824.000   4.94471052e+02
   824.500   4.86115604e+02
   825.000   4.78055461e+02
   825.500   4.70279850e+02
   826.000   4.62778505e+02
   826.500   4.55541645e+02
   827.000   4.48559954e+02
   827.500   4.41824555e+02
   828.000   4.35326992e+02
   828.500   4.29059209e+02
   829.000   4.23013533e+02
   829.500   4.17182657e+02
   830.000   4.11559621e+02
   830.500   4.06137799e+02
   831.000   4.00910882e+02
   831.500   3.95872864e+02
   832.000   3.91018031e+02
   832.500   3.86340945e+02
   833.000   3.81836436e+02
   833.500   3.77499587e+02
   834.000   3.73325725e+02
   834.500   3.69310412e+02
   835.000   3.65449434e+02
   835.500   3.61738792e+02
   836.000   3.58174697e+02
   836.500   3.54753556e+02
   837.000   3.51471972e+02
   837.500   3.48326728e+02
   838.000   3.45314792e+02
   838.500   3.42433300e+02
   839.000   3.39679557e+02
   839.500   3.37051030e+02
   840.000   3.34545342e+02
   840.500   3.32160269e+02
   841.000   3.29893735e+02
   841.500   3.27743809e+02
   842.000   3.25708699e+02
   842.500   3.23786754e+02
   843.000   3.21976454e+02
   843.500   3.20276414e+02
   844.000   3.18685376e+02
   844.500   3.17202213e+02
   845.000   3.15825922e+02
   845.500   3.14555625e+02
   846.000   3.13390566e+02
   846.500   3.12330114e+02
   847.000   3.11373757e+02
   847.500   3.10521106e+02
   848.000   3.09771893e+02
   848.500   3.09125971e+02
   849.000   3.08583313e+02
   849.500   3.08144017e+02
   850.000   3.07808302e+02
   850.500   3.07576513e+02
   851.000   3.07449119e+02
   851.500   3.07426718e+02
   852.000   3.07510036e+02
   852.500   3.07699934e+02
   853.000   3.07997405e+02
   853.500   3.08403579e+02
   854.000   3.08919730e+02
   854.500   3.09547273e+02
   855.000   3.10287773e+02
   855.500   3.11142947e+02
   856.000   3.12114672e+02
   856.500   3.13204984e+02
   857.000   3.14416088e+02
   857.500   3.15750363e+02
   858.000   3.17210369e+02
   858.500   3.18798852e+02
   859.000   3.20518750e+02
   859.500   3.22373207e+02
   860.000   3.24365573e+02
   860.500   3.26499419e+02
   861.000   3.28778542e+02
   861.500   3.31206978e+02
   862.000   3.33789009e+02
   862.500   3.36529179e+02
   863.000   3.39432299e+02
   863.500   3.42503465e+02
   864.000   3.45748067e+02
   864.500   3.49171804e+02
   865.000   3.52780698e+02
   865.500   3.56581110e+02
   866.000   3.60579751e+02
   866.500   3.64783703e+02
   867.000   3.69200433e+02
   867.500   3.73837811e+02
   868.000   3.78704126e+02
   868.500   3.83808108e+02
   869.000   3.89158941e+02
   869.500   3.94766289e+02
   870.000   4.00640307e+02
   870.500   4.06791666e+02
   871.000   4.13231572e+02
   871.500   4.19971778e+02
   872.000   4.27024609e+02
   872.500   4.34402976e+02
   873.000   4.42120390e+02
   873.500   4.50190976e+02
   874.000   4.58629486e+02
   874.500   4.67451304e+02
   875.000   4.76672448e+02
   875.500   4.86309573e+02
   876.000   4.96379960e+02
   876.500   5.06901502e+02
   877.000   5.17892682e+02
   877.500   5.29372534e+02
   878.000   5.41360600e+02
   878.500   5.53876867e+02
   879.000   5.66941687e+02
   879.500   5.80575679e+02
   880.000   5.94799602e+02
   880.500   6.09634208e+02
   881.000   6.25100058e+02
   881.500   6.41217305e+02
   882.000   6.58005433e+02
   882.500   6.75482957e+02
   883.000   6.93667059e+02
   883.500   7.12573181e+02
   884.000   7.32214547e+02
   884.500   7.52601615e+02
   885.000   7.73741463e+02
   885.500   7.95637087e+02
   886.000   8.18286629e+02
   886.500   8.41682511e+02
   887.000   8.65810502e+02
   887.500   8.90648695e+02
   888.000   9.16166427e+02
   888.500   9.42323145e+02
   889.000   9.69067239e+02
   889.500   9.96334872e+02
   890.000   1.02404885e+03
   890.500   1.05211757e+03
   891.000   1.08043410e+03
   891.500   1.10887548e+03
   892.000   1.13730226e+03
   892.500   1.16555848e+03
   893.000   1.19347194e+03
   893.500   1.22085518e+03
   894.000   1.24750689e+03
   894.500   1.27321405e+03
   895.000   1.29775474e+03
   895.500   1.32090161e+03
   896.000   1.34242603e+03
   896.500   1.36210278e+03
   897.000   1.37971516e+03
   897.500   1.39506036e+03
   898.000   1.40795489e+03
   898.500   1.41823974e+03
   899.000   1.42578514e+03
   899.500   1.43049450e+03
   900.000   1.43230752e+03
   900.500   1.43120207e+03
   901.000   1.42719487e+03
   901.500   1.42034088e+03
   902.000   1.41073145e+03
   902.500   1.39849137e+03
   903.000   1.38377487e+03
   903.500   1.36676104e+03
   904.000   1.34764859e+03
   904.500   1.32665060e+03
   905.000   1.30398908e+03
   905.500   1.27988994e+03
   906.000   1.25457829e+03
   906.500   1.22827430e+03
   907.000   1.20118973e+03
   907.500   1.17352512e+03
   908.000   1.14546757e+03
   908.500   1.11718934e+03
   909.000   1.08884684e+03
   909.500   1.06058028e+03
   910.000   1.03251367e+03
   910.500   1.00475523e+03
   911.000   9.77398050e+02
   911.500   9.50520974e+02
   912.000   9.24189586e+02
   912.500   8.98457331e+02
   913.000   8.73366636e+02
   913.500   8.48950057e+02
   914.000   8.25231384e+02
   914.500   8.02226704e+02
   915.000   7.79945399e+02
   915.500   7.58391075e+02
   916.000   7.37562408e+02
   916.500   7.17453914e+02
   917.000   6.98056643e+02
   917.500   6.79358787e+02
   918.000   6.61346233e+02
   918.500   6.44003028e+02
   919.000   6.27311801e+02
   919.500   6.11254118e+02
   920.000   5.95810788e+02
   920.500   5.80962126e+02
   921.000   5.66688177e+02
   921.500   5.52968894e+02
   922.000   5.39784301e+02
   922.500   5.27114614e+02
   923.000   5.14940349e+02
   923.500   5.03242400e+02
   924.000   4.92002111e+02
   924.500   4.81201320e+02
   925.000   4.70822402e+02
   925.500   4.60848292e+02
   926.000   4.51262507e+02
   926.500   4.42049154e+02
   927.000   4.33192934e+02
   927.500   4.24679142e+02
   928.000   4.16493662e+02
   928.500   4.08622956e+02
   929.000   4.01054057e+02
   929.500   3.93774551e+02
   930.000   3.86772565e+02
   930.500   3.80036750e+02
   931.000   3.73556262e+02
   931.500   3.67320748e+02
   932.000   3.61320324e+02
   932.500   3.55545560e+02
   933.000   3.49987461e+02
   933.500   3.44637447e+02
   934.000   3.39487340e+02
   934.500   3.34529342e+02
   935.000   3.29756022e+02
   935.500   3.25160298e+02
   936.000   3.20735419e+02
   936.500   3.16474956e+02
   937.000   3.12372781e+02
   937.500   3.08423057e+02
   938.000   3.04620222e+02
   938.500   3.00958978e+02
   939.000   2.97434279e+02
   939.500   2.94041317e+02
   940.000   2.90775512e+02
   940.500   2.87632502e+02
   941.000   2.84608132e+02
   941.500   2.81698444e+02
   942.000   2.78899669e+02
   942.500   2.76208219e+02
   943.000   2.73620675e+02
   943.500   2.71133783e+02
   944.000   2.68744444e+02
   944.500   2.66449711e+02
   945.000   2.64246777e+02
   945.500   2.62132971e+02
   946.000   2.60105753e+02
   946.500   2.58162708e+02
   947.000   2.56301538e+02
   947.500   2.54520064e+02
   948.000   2.52816210e+02
   948.500   2.51188010e+02
   949.000   2.49633597e+02
   949.500   2.48151199e+02
   950.000   2.46739141e+02
   950.500   2.45395833e+02
   951.000   2.44119774e+02
   951.500   2.42909546e+02
   952.000   2.41763808e+02
   952.500   2.40681300e+02
   953.000   2.39660835e+02
   953.500   2.38701298e+02
   954.000   2.37801645e+02
   954.500   2.36960901e+02
   955.000   2.36178154e+02
   955.500   2.35452559e+02
   956.000   2.34783333e+02
   956.500   2.34169755e+02
   957.000   2.33611161e+02
   957.500   2.33106949e+02
   958.000   2.32656572e+02
   958.500   2.32259541e+02
   959.000   2.31915422e+02
   959.500   2.31623835e+02
   960.000   2.31384456e+02
   960.500   2.31197012e+02
   961.000   2.31061286e+02
   961.500   2.30977112e+02
   962.000   2.30944377e+02
   962.500   2.30963020e+02
   963.000   2.31033033e+02
   963.500   2.31154461e+02
   964.000   2.31327401e+02
   964.500   2.31552004e+02
   965.000   2.31828474e+02
   965.500   2.32157068e+02
   966.000   2.32538101e+02
   966.500   2.32971939e+02
   967.000   2.33459008e+02
   967.500   2.33999791e+02
   968.000   2.34594827e+02
   968.500   2.35244719e+02
   969.000   2.35950127e+02
   969.500   2.36711776e+02
   970.000   2.37530457e+02
   970.500   2.38407023e+02
   971.000   2.39342399e+02
   971.500   2.40337579e+02
   972.000   2.41393630e+02
   972.500   2.42511694e+02
   973.000   2.43692990e+02
   973.500   2.44938820e+02
   974.000   2.46250566e+02
   974.500   2.47629701e+02
   975.000   2.49077785e+02
   975.500   2.50596474e+02
   976.000   2.52187520e+02
   976.500   2.53852779e+02
   977.000   2.55594212e+02
   977.500   2.57413891e+02
   978.000   2.59314005e+02
   978.500   2.61296862e+02
   979.000   2.63364898e+02
   979.500   2.65520680e+02
   980.000   2.67766914e+02
   980.500   2.70106450e+02
   981.000   2.72542290e+02
   981.500   2.75077593e+02
   982.000   2.77715683e+02
   982.500   2.80460059e+02
   983.000   2.83314400e+02
   983.500   2.86282574e+02
   984.000   2.89368647e+02
   984.500   2.92576891e+02
   985.000   2.95911795e+02
   985.500   2.99378073e+02
   986.000   3.02980673e+02
   986.500   3.06724788e+02
   987.000   3.10615864e+02
   987.500   3.14659614e+02
   988.000   3.18862023e+02
   988.500   3.23229357e+02
   989.000   3.27768179e+02
   989.500   3.32485350e+02
   990.000   3.37388041e+02
   990.500   3.42483740e+02
   991.000   3.47780254e+02
   991.500   3.53285719e+02
   992.000   3.59008596e+02
   992.500   3.64957677e+02
   993.000   3.71142074e+02
   993.500   3.77571218e+02
   994.000   3.84254847e+02
   994.500   3.91202985e+02
   995.000   3.98425922e+02
   995.500   4.05934185e+02
   996.000   4.13738493e+02
   996.500   4.21849715e+02
   997.000   4.30278804e+02
   997.500   4.39036724e+02
   998.000   4.48134360e+02
   998.500   4.57582407e+02
   999.000   4.67391247e+02
   999.500   4.77570792e+02
  1000.000   4.88130311e+02
  1000.500   4.99078222e+02
  1001.000   5.10421860e+02
  1001.500   5.22167201e+02
  1002.000   5.34318558e+02
  1002.500   5.46878237e+02
  1003.000   5.59846148e+02
  1003.500   5.73219385e+02
  1004.000   5.86991754e+02
  1004.500   6.01153278e+02
  1005.000   6.15689657e+02
  1005.500   6.30581712e+02
  1006.000   6.45804812e+02
  1006.500   6.61328297e+02
  1007.000   6.77114931e+02
  1007.500   6.93120386e+02
  1008.000   7.09292802e+02
  1008.500   7.25572449e+02
  1009.000   7.41891533e+02
  1009.500   7.58174170e+02
  1010.000   7.74336598e+02
  1010.500   7.90287628e+02
  1011.000   8.05929408e+02
  1011.500   8.21158500e+02
  1012.000   8.35867291e+02
  1012.500   8.49945749e+02
  1013.000   8.63283491e+02
  1013.500   8.75772118e+02
  1014.000   8.87307764e+02
  1014.500   8.97793759e+02
  1015.000   9.07143291e+02
  1015.500   9.15281968e+02
  1016.000   9.22150124e+02
  1016.500   9.27704763e+02
  1017.000   9.31921027e+02
  1017.500   9.34793102e+02
  1018.000   9.36334504e+02
  1018.500   9.36577734e+02
  1019.000   9.35573329e+02
  1019.500   9.33388353e+02
  1020.000   9.30104431e+02
  1020.500   9.25815430e+02
  1021.000   9.20624919e+02
  1021.500   9.14643526e+02
  1022.000   9.07986319e+02
  1022.500   9.00770320e+02
  1023.000   8.93112222e+02
  1023.500   8.85126390e+02
  1024.000   8.76923177e+02
  1024.500   8.68607574e+02
  1025.000   8.60278187e+02
  1025.500   8.52026539e+02
  1026.000   8.43936651e+02
  1026.500   8.36084884e+02
  1027.000   8.28539983e+02
  1027.500   8.21363309e+02
  1028.000   8.14609191e+02
  1028.500   8.08325386e+02
  1029.000   8.02553607e+02
  1029.500   7.97330086e+02
  1030.000   7.92686154e+02
  1030.500   7.88648831e+02
  1031.000   7.85241390e+02
  1031.500   7.82483900e+02
  1032.000   7.80393742e+02
  1032.500   7.78986083e+02
  1033.000   7.78274308e+02
  1033.500   7.78270425e+02
  1034.000   7.78985411e+02
  1034.500   7.80429533e+02
  1035.000   7.82612623e+02
  1035.500   7.85544321e+02
  1036.000   7.89234279e+02
  1036.500   7.93692337e+02
  1037.000   7.98928661e+02
  1037.500   8.04953856e+02
  1038.000   8.11779047e+02
  1038.500   8.19415930e+02
  1039.000   8.27876799e+02
  1039.500   8.37174533e+02
  1040.000   8.47322564e+02
  1040.500   8.58334804e+02
  1041.000   8.70225540e+02
  1041.500   8.83009295e+02
  1042.000   8.96700641e+02
  1042.500   9.11313972e+02
  1043.000   9.26863228e+02
  1043.500   9.43361564e+02
  1044.000   9.60820952e+02
  1044.500   9.79251734e+02
  1045.000   9.98662083e+02
  1045.500   1.01905740e+03
  1046.000   1.04043965e+03
  1046.500   1.06280652e+03
  1047.000   1.08615065e+03
  1047.500   1.11045859e+03
  1048.000   1.13570983e+03
  1048.500   1.16187560e+03
  1049.000   1.18891774e+03
  1049.500   1.21678739e+03
  1050.000   1.24542374e+03
  1050.500   1.27475274e+03
  1051.000   1.30468580e+03
  1051.500   1.33511873e+03
  1052.000   1.36593062e+03
  1052.500   1.39698319e+03
  1053.000   1.42812023e+03
  1053.500   1.45916758e+03
  1054.000   1.48993350e+03
  1054.500   1.52020974e+03
  1055.000   1.54977311e+03
  1055.500   1.57838787e+03
  1056.000   1.60580886e+03
  1056.500   1.63178532e+03
  1057.000   1.65606549e+03
  1057.500   1.67840175e+03
  1058.000   1.69855633e+03
  1058.500   1.71630712e+03
  1059.000   1.73145369e+03
  1059.500   1.74382293e+03
  1060.000   1.75327423e+03
  1060.500   1.75970381e+03
  1061.000   1.76304803e+03
  1061.500   1.76328546e+03
  1062.000   1.76043750e+03
  1062.500   1.75456773e+03
  1063.000   1.74577976e+03
  1063.500   1.73421390e+03
  1064.000   1.72004286e+03
  1064.500   1.70346651e+03
  1065.000   1.68470627e+03
  1065.500   1.66399920e+03
  1066.000   1.64159211e+03
  1066.500   1.61773601e+03
  1067.000   1.59268098e+03
  1067.500   1.56667167e+03
  1068.000   1.53994347e+03
  1068.500   1.51271947e+03
  1069.000   1.48520817e+03
  1069.500   1.45760176e+03
  1070.000   1.43007527e+03
  1070.500   1.40278606e+03
  1071.000   1.37587394e+03
  1071.500   1.34946160e+03
  1072.000   1.32365539e+03
  1072.500   1.29854628e+03
  1073.000   1.27421101e+03
  1073.500   1.25071330e+03
  1074.000   1.22810513e+03
  1074.500   1.20642798e+03
  1075.000   1.18571409e+03
  1075.500   1.16598766e+03
  1076.000   1.14726590e+03
  1076.500   1.12956011e+03
  1077.000   1.11287665e+03
  1077.500   1.09721773e+03
  1078.000   1.08258227e+03
  1078.500   1.06896651e+03
  1079.000   1.05636470e+03
  1079.500   1.04476959e+03
  1080.000   1.03417295e+03
  1080.500   1.02456592e+03
  1081.000   1.01593945e+03
  1081.500   1.00828454e+03
  1082.000   1.00159255e+03
  1082.500   9.95855419e+02
  1083.000   9.91065828e+02
  1083.500   9.87217403e+02
  1084.000   9.84304830e+02
  1084.500   9.82323971e+02
  1085.000   9.81271956e+02
  1085.500   9.81147259e+02
  1086.000   9.81949748e+02
  1086.500   9.83680732e+02
  1087.000   9.86342986e+02
  1087.500   9.89940760e+02
  1088.000   9.94479780e+02
  1088.500   9.99967230e+02
  1089.000   1.00641172e+03
  1089.500   1.01382324e+03
  1090.000   1.02221310e+03
  1090.500   1.03159382e+03
  1091.000   1.04197905e+03
  1091.500   1.05338342e+03
  1092.000   1.06582238e+03
  1092.500   1.07931200e+03
  1093.000   1.09386873e+03
  1093.500   1.10950914e+03
  1094.000   1.12624956e+03
  1094.500   1.14410573e+03
  1095.000   1.16309232e+03
  1095.500   1.18322242e+03
  1096.000   1.20450700e+03
  1096.500   1.22695415e+03
  1097.000   1.25056838e+03
  1097.500   1.27534973e+03
  1098.000   1.30129283e+03
  1098.500   1.32838581e+03
  1099.000   1.35660919e+03
  1099.500   1.38593457e+03
  1100.000   1.41632334e+03
  1100.500   1.44772526e+03
  1101.000   1.48007699e+03
  1101.500   1.51330066e+03
  1102.000   1.54730245e+03
  1102.500   1.58197127e+03
  1103.000   1.61717753e+03
  1103.500   1.65277231e+03
  1104.000   1.68858665e+03
  1104.500   1.72443146e+03
  1105.000   1.76009780e+03
  1105.500   1.79535788e+03
  1106.000   1.82996676e+03
  1106.500   1.86366482e+03
  1107.000   1.89618107e+03
  1107.500   1.92723731e+03
  1108.000   1.95655312e+03
  1108.500   1.98385149e+03
  1109.000   2.00886506e+03
  1109.500   2.03134268e+03
  1110.000   2.05105603e+03
  1110.500   2.06780605e+03
  1111.000   2.08142876e+03
  1111.500   2.09180029e+03
  1112.000   2.09884068e+03
  1112.500   2.10251635e+03
  1113.000   2.10284101e+03
  1113.500   2.09987493e+03
  1114.000   2.09372270e+03
  1114.500   2.08452948e+03
  1115.000   2.07247606e+03
  1115.500   2.05777292e+03
  1116.000   2.04065367e+03
  1116.500   2.02136811e+03
  1117.000   2.00017536e+03
  1117.500   1.97733715e+03
  1118.000   1.95311171e+03
  1118.500   1.92774831e+03
  1119.000   1.90148262e+03
  1119.500   1.87453300e+03
  1120.000   1.84709765e+03
  1120.500   1.81935273e+03
  1121.000   1.79145129e+03
  1121.500   1.76352306e+03
  1122.000   1.73567483e+03
  1122.500   1.70799161e+03
  1123.000   1.68053819e+03
  1123.500   1.65336114e+03
  1124.000   1.62649120e+03
  1124.500   1.59994579e+03
  1125.000   1.57373173e+03
  1125.500   1.54784794e+03
  1126.000   1.52228805e+03
  1126.500   1.49704290e+03
  1127.000   1.47210274e+03
  1127.500   1.44745917e+03
  1128.000   1.42310669e+03
  1128.500   1.39904385e+03
  1129.000   1.37527407e+03
  1129.500   1.35180594e+03
  1130.000   1.32865327e+03
  1130.500   1.30583478e+03
  1131.000   1.28337352e+03
  1131.500   1.26129614e+03
  1132.000   1.23963199e+03
  1132.500   1.21841216e+03
  1133.000   1.19766861e+03
  1133.500   1.17743324e+03
  1134.000   1.15773708e+03
  1134.500   1.13860968e+03
  1135.000   1.12007847e+03
  1135.500   1.10216841e+03
  1136.000   1.08490171e+03
  1136.500   1.06829763e+03
  1137.000   1.05237245e+03
  1137.500   1.03713952e+03
  1138.000   1.02260938e+03
  1138.500   1.00878993e+03
  1139.000   9.95686651e+02
  1139.500   9.83302876e+02
  1140.000   9.71640026e+02
  1140.500   9.60697907e+02
  1141.000   9.50474973e+02
  1141.500   9.40968593e+02
  1142.000   9.32175305e+02
  1142.500   9.24091047e+02
  1143.000   9.16711379e+02
  1143.500   9.10031682e+02
  1144.000   9.04047338e+02
  1144.500   8.98753893e+02
  1145.000   8.94147203e+02
  1145.500   8.90223558e+02
  1146.000   8.86979799e+02
  1146.500   8.84413409e+02
  1147.000   8.82522602e+02
  1147.500   8.81306394e+02
  1148.000   8.80764661e+02
  1148.500   8.80898194e+02
  1149.000   8.81708733e+02
  1149.500   8.83199007e+02
  1150.000   8.85372751e+02
  1150.500   8.88234723e+02
  1151.000   8.91790708e+02
  1151.500   8.96047521e+02
  1152.000   9.01012988e+02
  1152.500   9.06695928e+02
  1153.000   9.13106118e+02
  1153.500   9.20254249e+02
  1154.000   9.28151864e+02
  1154.500   9.36811286e+02
  1155.000   9.46245520e+02
  1155.500   9.56468144e+02
  1156.000   9.67493166e+02
  1156.500   9.79334865e+02
  1157.000   9.92007594e+02
  1157.500   1.00552556e+03
  1158.000   1.01990254e+03
  1158.500   1.03515160e+03
  1159.000   1.05128474e+03
  1159.500   1.06831248e+03
  1160.000   1.08624341e+03
  1160.500   1.10508373e+03
  1161.000   1.12483662e+03
  1161.500   1.14550167e+03
  1162.000   1.16707422e+03
  1162.500   1.18954461e+03
  1163.000   1.21289748e+03
  1163.500   1.23711092e+03
  1164.000   1.26215577e+03
  1164.500   1.28799478e+03
  1165.000   1.31458191e+03
  1165.500   1.34186169e+03
  1166.000   1.36976869e+03
  1166.500   1.39822714e+03
  1167.000   1.42715080e+03
  1167.500   1.45644311e+03
  1168.000   1.48599759e+03
  1168.500   1.51569869e+03
  1169.000   1.54542301e+03
  1169.500   1.57504093e+03
  1170.000   1.60441864e+03
  1170.500   1.63342068e+03
  1171.000   1.66191265e+03
  1171.500   1.68976429e+03
  1172.000   1.71685267e+03
  1172.500   1.74306529e+03
  1173.000   1.76830312e+03
  1173.500   1.79248313e+03
  1174.000   1.81554040e+03
  1174.500   1.83742947e+03
  1175.000   1.85812490e+03
  1175.500   1.87762091e+03
  1176.000   1.89593014e+03
  1176.500   1.91308143e+03
  1177.000   1.92911688e+03
  1177.500   1.94408814e+03
  1178.000   1.95805227e+03
  1178.500   1.97106723e+03
  1179.000   1.98318729e+03
  1179.500   1.99445860e+03
  1180.000   2.00491504e+03
  1180.500   2.01457464e+03
  1181.000   2.02343666e+03
  1181.500   2.03147952e+03
  1182.000   2.03865962e+03
  1182.500   2.04491126e+03
  1183.000   2.05014750e+03
  1183.500   2.05426215e+03
  1184.000   2.05713269e+03
  1184.500   2.05862416e+03
  1185.000   2.05859386e+03
  1185.500   2.05689655e+03
  1186.000   2.05339022e+03
  1186.500   2.04794185e+03
  1187.000   2.04043317e+03
  1187.500   2.03076599e+03
  1188.000   2.01886683e+03
  1188.500   2.00469068e+03
  1189.000   1.98822368e+03
  1189.500   1.96948456e+03
  1190.000   1.94852480e+03
  1190.500   1.92542756e+03
  1191.000   1.90030544e+03
  1191.500   1.87329733e+03
  1192.000   1.84456433e+03
  1192.500   1.81428534e+03
  1193.000   1.78265218e+03
  1193.500   1.74986484e+03
  1194.000   1.71612672e+03
  1194.500   1.68164039e+03
  1195.000   1.64660373e+03
  1195.500   1.61120668e+03
  1196.000   1.57562860e+03
  1196.500   1.54003626e+03
  1197.000   1.50458240e+03
  1197.500   1.46940490e+03
  1198.000   1.43462639e+03
  1198.500   1.40035431e+03
  1199.000   1.36668122e+03
  1199.500   1.33368553e+03
  1200.000   1.30143229e+03
  1200.500   1.26997417e+03
  1201.000   1.23935249e+03
  1201.500   1.20959835e+03
  1202.000   1.18073372e+03
  1202.500   1.15277245e+03
  1203.000   1.12572135e+03
  1203.500   1.09958111e+03
  1204.000   1.07434720e+03
  1204.500   1.05001065e+03
  1205.000   1.02655885e+03
  1205.500   1.00397614e+03
  1206.000   9.82244432e+02
  1206.500   9.61343700e+02
  1207.000   9.41252453e+02
  1207.500   9.21948110e+02
  1208.000   9.03407341e+02
  1208.500   8.85606350e+02
  1209.000   8.68521122e+02
  1209.500   8.52127623e+02
  1210.000   8.36401970e+02
  1210.500   8.21320575e+02
  1211.000   8.06860253e+02
  1211.500   7.92998318e+02
  1212.000   7.79712651e+02
  1212.500   7.66981757e+02
  1213.000   7.54784806e+02
  1213.500   7.43101661e+02
  1214.000   7.31912897e+02
  1214.500   7.21199812e+02
  1215.000   7.10944431e+02
  1215.500   7.01129504e+02
  1216.000   6.91738494e+02
  1216.500   6.82755575e+02
  1217.000   6.74165611e+02
  1217.500   6.65954143e+02
  1218.000   6.58107372e+02
  1218.500   6.50612139e+02
  1219.000   6.43455903e+02
  1219.500   6.36626724e+02
  1220.000   6.30113241e+02
  1220.500   6.23904650e+02
  1221.000   6.17990685e+02
  1221.500   6.12361597e+02
  1222.000   6.07008132e+02
  1222.500   6.01921518e+02
  1223.000   5.97093435e+02
  1223.500   5.92516009e+02
  1224.000   5.88181787e+02
  1224.500   5.84083719e+02
  1225.000   5.80215149e+02
  1225.500   5.76569792e+02
  1226.000   5.73141723e+02
  1226.500   5.69925364e+02
  1227.000   5.66915469e+02
  1227.500   5.64107110e+02
  1228.000   5.61495668e+02
  1228.500   5.59076822e+02
  1229.000   5.56846537e+02
  1229.500   5.54801052e+02
  1230.000   5.52936878e+02
  1230.500   5.51250782e+02
  1231.000   5.49739783e+02
  1231.500   5.48401144e+02
  1232.000   5.47232366e+02
  1232.500   5.46231180e+02
  1233.000   5.45395544e+02
  1233.500   5.44723633e+02
  1234.000   5.44213843e+02
  1234.500   5.43864779e+02
  1235.000   5.43675255e+02
  1235.500   5.43644290e+02
  1236.000   5.43771106e+02
  1236.500   5.44055129e+02
  1237.000   5.44495979e+02
  1237.500   5.45093479e+02
  1238.000   5.45847648e+02
  1238.500   5.46758702e+02
  1239.000   5.47827055e+02
  1239.500   5.49053320e+02
  1240.000   5.50438311e+02
  1240.500   5.51983041e+02
  1241.000   5.53688730e+02
  1241.500   5.55556801e+02
  1242.000   5.57588890e+02
  1242.500   5.59786844e+02
  1243.000   5.62152728e+02
  1243.500   5.64688830e+02
  1244.000   5.67397665e+02
  1244.500   5.70281981e+02
  1245.000   5.73344765e+02
  1245.500   5.76589252e+02
  1246.000   5.80018930e+02
  1246.500   5.83637549e+02
  1247.000   5.87449130e+02
  1247.500   5.91457975e+02
  1248.000   5.95668674e+02
  1248.500   6.00086121e+02
  1249.000   6.04715521e+02
  1249.500   6.09562404e+02
  1250.000   6.14632636e+02
  1250.500   6.19932437e+02
  1251.000   6.25468392e+02
  1251.500   6.31247466e+02
  1252.000   6.37277022e+02
  1252.500   6.43564837e+02
  1253.000   6.50119120e+02
  1253.500   6.56948530e+02
  1254.000   6.64062195e+02
  1254.500   6.71469734e+02
  1255.000   6.79181276e+02
  1255.500   6.87207481e+02
  1256.000   6.95559566e+02
  1256.500   7.04249322e+02
  1257.000   7.13289141e+02
  1257.500   7.22692040e+02
  1258.000   7.32471682e+02
  1258.500   7.42642401e+02
  1259.000   7.53219226e+02
  1259.500   7.64217902e+02
  1260.000   7.75654913e+02
  1260.500   7.87547504e+02
  1261.000   7.99913697e+02
  1261.500   8.12772309e+02
  1262.000   8.26142965e+02
  1262.500   8.40046111e+02
  1263.000   8.54503013e+02
  1263.500   8.69535765e+02
  1264.000   8.85167278e+02
  1264.500   9.01421265e+02
  1265.000   9.18322222e+02
  1265.500   9.35895396e+02
  1266.000   9.54166735e+02
  1266.500   9.73162835e+02
  1267.000   9.92910866e+02
  1267.500   1.01343848e+03
  1268.000   1.03477372e+03
  1268.500   1.05694484e+03
  1269.000   1.07998025e+03
  1269.500   1.10390823e+03
  1270.000   1.12875683e+03
  1270.500   1.15455356e+03
  1271.000   1.18132523e+03
  1271.500   1.20909757e+03
  1272.000   1.23789500e+03
  1272.500   1.26774024e+03
  1273.000   1.29865397e+03
  1273.500   1.33065437e+03
  1274.000   1.36375675e+03
  1274.500   1.39797301e+03
  1275.000   1.43331110e+03
  1275.500   1.46977451e+03
  1276.000   1.50736155e+03
  1276.500   1.54606465e+03
  1277.000   1.58586959e+03
  1277.500   1.62675453e+03
  1278.000   1.66868905e+03
  1278.500   1.71163293e+03
  1279.000   1.75553489e+03
  1279.500   1.80033112e+03
  1280.000   1.84594374e+03
  1280.500   1.89227907e+03
  1281.000   1.93922588e+03
  1281.500   1.98665360e+03
  1282.000   2.03441059e+03
  1282.500   2.08232256e+03
  1283.000   2.13019132e+03
  1283.500   2.17779385e+03
  1284.000   2.22488206e+03
  1284.500   2.27118317e+03
  1285.000   2.31640103e+03
  1285.500   2.36021839e+03
  1286.000   2.40230035e+03
  1286.500   2.44229884e+03
  1287.000   2.47985836e+03
  1287.500   2.51462279e+03
  1288.000   2.54624301e+03
  1288.500   2.57438531e+03
  1289.000   2.59874012e+03
  1289.500   2.61903075e+03
  1290.000   2.63502167e+03
  1290.500   2.64652593e+03
  1291.000   2.65341139e+03
  1291.500   2.65560521e+03
  1292.000   2.65309654e+03
  1292.500   2.64593710e+03
  1293.000   2.63423967e+03
  1293.500   2.61817464e+03
  1294.000   2.59796471e+03
  1294.500   2.57387816e+03
  1295.000   2.54622105e+03
  1295.500   2.51532868e+03
  1296.000   2.48155688e+03
  1296.500   2.44527340e+03
  1297.000   2.40684977e+03
  1297.500   2.36665391e+03
  1298.000   2.32504372e+03
  1298.500   2.28236169e+03
  1299.000   2.23893060e+03
  1299.500   2.19505040e+03
  1300.000   2.15099597e+03
  1300.500   2.10701596e+03
  1301.000   2.06333234e+03
  1301.500   2.02014066e+03
  1302.000   1.97761085e+03
  1302.500   1.93588844e+03
  1303.000   1.89509608e+03
  1303.500   1.85533526e+03
  1304.000   1.81668818e+03
  1304.500   1.77921957e+03
  1305.000   1.74297861e+03
  1305.500   1.70800071e+03
  1306.000   1.67430925e+03
  1306.500   1.64191718e+03
  1307.000   1.61082852e+03
  1307.500   1.58103971e+03
  1308.000   1.55254085e+03
  1308.500   1.52531678e+03
  1309.000   1.49934809e+03
  1309.500   1.47461195e+03
  1310.000   1.45108289e+03
  1310.500   1.42873343e+03
  1311.000   1.40753468e+03
  1311.500   1.38745676e+03
  1312.000   1.36846930e+03
  1312.500   1.35054171e+03
  1313.000   1.33364352e+03
  1313.500   1.31774461e+03
  1314.000   1.30281539e+03
  1314.500   1.28882700e+03
  1315.000   1.27575143e+03
  1315.500   1.26356160e+03
  1316.000   1.25223148e+03
  1316.500   1.24173611e+03
  1317.000   1.23205169e+03
  1317.500   1.22315559e+03
  1318.000   1.21502636e+03
  1318.500   1.20764377e+03
  1319.000   1.20098878e+03
  1319.500   1.19504357e+03
  1320.000   1.18979153e+03
  1320.500   1.18521721e+03
  1321.000   1.18130635e+03
  1321.500   1.17804586e+03
  1322.000   1.17542379e+03
  1322.500   1.17342930e+03
  1323.000   1.17205267e+03
  1323.500   1.17128529e+03
  1324.000   1.17111958e+03
  1324.500   1.17154906e+03
  1325.000   1.17256825e+03
  1325.500   1.17417272e+03
  1326.000   1.17635903e+03
  1326.500   1.17912472e+03
  1327.000   1.18246831e+03
  1327.500   1.18638929e+03
  1328.000   1.19088807e+03
  1328.500   1.19596598e+03
  1329.000   1.20162528e+03
  1329.500   1.20786907e+03
  1330.000   1.21470136e+03
  1330.500   1.22212696e+03
  1331.000   1.23015151e+03
  1331.500   1.23878140e+03
  1332.000   1.24802379e+03
  1332.500   1.25788648e+03
  1333.000   1.26837795e+03
  1333.500   1.27950721e+03
  1334.000   1.29128378e+03
  1334.500   1.30371756e+03
  1335.000   1.31681878e+03
  1335.500   1.33059778e+03
  1336.000   1.34506495e+03
  1336.500   1.36023052e+03
  1337.000   1.37610436e+03
  1337.500   1.39269576e+03
  1338.000   1.41001316e+03
  1338.500   1.42806385e+03
  1339.000   1.44685363e+03
  1339.500   1.46638646e+03
  1340.000   1.48666397e+03
  1340.500   1.50768506e+03
  1341.000   1.52944535e+03
  1341.500   1.55193664e+03
  1342.000   1.57514633e+03
  1342.500   1.59905679e+03
  1343.000   1.62364474e+03
  1343.500   1.64888064e+03
  1344.000   1.67472802e+03
  1344.500   1.70114298e+03
  1345.000   1.72807369e+03
  1345.500   1.75545999e+03
  1346.000   1.78323316e+03
  1346.500   1.81131594e+03
  1347.000   1.83962271e+03
  1347.500   1.86805998e+03
  1348.000   1.89652723e+03
  1348.500   1.92491810e+03
  1349.000   1.95312192e+03
  1349.500   1.98102564e+03
  1350.000   2.00851611e+03
  1350.500   2.03548266e+03
  1351.000   2.06181995e+03
  1351.500   2.08743090e+03
  1352.000   2.11222965e+03
  1352.500   2.13614450e+03
  1353.000   2.15912042e+03
  1353.500   2.18112133e+03
  1354.000   2.20213178e+03
  1354.500   2.22215801e+03
  1355.000   2.24122835e+03
  1355.500   2.25939294e+03
  1356.000   2.27672274e+03
  1356.500   2.29330791e+03
  1357.000   2.30925575e+03
  1357.500   2.32468811e+03
  1358.000   2.33973869e+03
  1358.500   2.35455011e+03
  1359.000   2.36927102e+03
  1359.500   2.38405340e+03
  1360.000   2.39905002e+03
  1360.500   2.41441223e+03
  1361.000   2.43028812e+03
  1361.500   2.44682102e+03
  1362.000   2.46414837e+03
  1362.500   2.48240100e+03
  1363.000   2.50170261e+03
  1363.500   2.52216969e+03
  1364.000   2.54391155e+03
  1364.500   2.56703058e+03
  1365.000   2.59162272e+03
  1365.500   2.61777794e+03
  1366.000   2.64558088e+03
  1366.500   2.67511146e+03
  1367.000   2.70644555e+03
  1367.500   2.73965564e+03
  1368.000   2.77481142e+03
  1368.500   2.81198039e+03
  1369.000   2.85122838e+03
  1369.500   2.89262004e+03
  1370.000   2.93621923e+03
  1370.500   2.98208937e+03
  1371.000   3.03029370e+03
  1371.500   3.08089550e+03
  1372.000   3.13395818e+03
  1372.500   3.18954535e+03
  1373.000   3.24772077e+03
  1373.500   3.30854824e+03
  1374.000   3.37209141e+03
  1374.500   3.43841353e+03
  1375.000   3.50757709e+03
  1375.500   3.57964341e+03
  1376.000   3.65467223e+03
  1376.500   3.73272108e+03
  1377.000   3.81384483e+03
  1377.500   3.89809504e+03
  1378.000   3.98551940e+03
  1378.500   4.07616119e+03
  1379.000   4.17005880e+03
  1379.500   4.26724539e+03
  1380.000   4.36774864e+03
  1380.500   4.47159079e+03
  1381.000   4.57878894e+03
  1381.500   4.68935562e+03
  1382.000   4.80329982e+03
  1382.500   4.92062840e+03
  1383.000   5.04134796e+03
  1383.500   5.16546722e+03
  1384.000   5.29299987e+03
  1384.500   5.42396771e+03
  1385.000   5.55840434e+03
  1385.500   5.69635884e+03
  1386.000   5.83789972e+03
  1386.500   5.98311860e+03
  1387.000   6.13213370e+03
  1387.500   6.28509274e+03
  1388.000   6.44217516e+03
  1388.500   6.60359342e+03
  1389.000   6.76959328e+03
  1389.500   6.94045290e+03
  1390.000   7.11648082e+03
  1390.500   7.29801264e+03
  1391.000   7.48540664e+03
  1391.500   7.67903835e+03
  1392.000   7.87929407e+03
  1392.500   8.08656374e+03
  1393.000   8.30123293e+03
  1393.500   8.52367435e+03
  1394.000   8.75423880e+03
  1394.500   8.99324561e+03
  1395.000   9.24097270e+03
  1395.500   9.49764605e+03
  1396.000   9.76342879e+03
  1396.500   1.00384097e+04
  1397.000   1.03225910e+04
  1397.500   1.06158759e+04
  1398.000   1.09180550e+04
  1398.500   1.12287930e+04
  1399.000   1.15476142e+04
  1399.500   1.18738884e+04
  1400.000   1.22068169e+04
  1400.500   1.25454193e+04
  1401.000   1.28885211e+04
  1401.500   1.32347441e+04
  1402.000   1.35824985e+04
  1402.500   1.39299798e+04
  1403.000   1.42751695e+04
  1403.500   1.46158427e+04
  1404.000   1.49495809e+04
  1404.500   1.52737942e+04
  1405.000   1.55857503e+04
  1405.500   1.58826132e+04
  1406.000   1.61614895e+04
  1406.500   1.64194833e+04
  1407.000   1.66537576e+04
  1407.500   1.68616001e+04
  1408.000   1.70404924e+04
  1408.500   1.71881778e+04
  1409.000   1.73027264e+04
  1409.500   1.73825927e+04
  1410.000   1.74266637e+04
  1410.500   1.74342943e+04
  1411.000   1.74053273e+04
  1411.500   1.73400983e+04
  1412.000   1.72394238e+04
  1412.500   1.71045737e+04
  1413.000   1.69372305e+04
  1413.500   1.67394365e+04
  1414.000   1.65135329e+04
  1414.500   1.62620935e+04
  1415.000   1.59878563e+04
  1415.500   1.56936565e+04
  1416.000   1.53823628e+04
  1416.500   1.50568196e+04
  1417.000   1.47197969e+04
  1417.500   1.43739477e+04
  1418.000   1.40217747e+04
  1418.500   1.36656051e+04
  1419.000   1.33075734e+04
  1419.500   1.29496119e+04
  1420.000   1.25934465e+04
  1420.500   1.22405991e+04
  1421.000   1.18923933e+04
  1421.500   1.15499636e+04
  1422.000   1.12142673e+04
  1422.500   1.08860976e+04
  1423.000   1.05660980e+04
  1423.500   1.02547764e+04
  1424.000   9.95252003e+03
  1424.500   9.65960920e+03
  1425.000   9.37623065e+03
  1425.500   9.10249014e+03
  1426.000   8.83842397e+03
  1426.500   8.58400953e+03
  1427.000   8.33917488e+03
  1427.500   8.10380726e+03
  1428.000   7.87776074e+03
  1428.500   7.66086286e+03
  1429.000   7.45292055e+03
  1429.500   7.25372514e+03
  1430.000   7.06305684e+03
  1430.500   6.88068842e+03
  1431.000   6.70638843e+03
  1431.500   6.53992391e+03
  1432.000   6.38106262e+03
  1432.500   6.22957489e+03
  1433.000   6.08523515e+03
  1433.500   5.94782313e+03
  1434.000   5.81712481e+03
  1434.500   5.69293319e+03
  1435.000   5.57504873e+03
  1435.500   5.46327976e+03
  1436.000   5.35744264e+03
  1436.500   5.25736182e+03
  1437.000   5.16286974e+03
  1437.500   5.07380667e+03
  1438.000   4.99002037e+03
  1438.500   4.91136568e+03
  1439.000   4.83770404e+03
  1439.500   4.76890282e+03
  1440.000   4.70483465e+03
  1440.500   4.64537653e+03
  1441.000   4.59040897e+03
  1441.500   4.53981482e+03
  1442.000   4.49347817e+03
  1442.500   4.45128300e+03
  1443.000   4.41311172e+03
  1443.500   4.37884363e+03
  1444.000   4.34835312e+03
  1444.500   4.32150790e+03
  1445.000   4.29816698e+03
  1445.500   4.27817862e+03
  1446.000   4.26137816e+03
  1446.500   4.24758590e+03
  1447.000   4.23660487e+03
  1447.500   4.22821880e+03
  1448.000   4.22219021e+03
  1448.500   4.21825878e+03
  1449.000   4.21614009e+03
  1449.500   4.21552488e+03
  1450.000   4.21607898e+03
  1450.500   4.21744398e+03
  1451.000   4.21923882e+03
  1451.500   4.22106253e+03
  1452.000   4.22249792e+03
  1452.500   4.22311655e+03
  1453.000   4.22248485e+03
  1453.500   4.22017127e+03
  1454.000   4.21575431e+03
  1454.500   4.20883130e+03
  1455.000   4.19902747e+03
  1455.500   4.18600492e+03
  1456.000   4.16947125e+03
  1456.500   4.14918715e+03
  1457.000   4.12497274e+03
  1457.500   4.09671220e+03
  1458.000   4.06435638e+03
  1458.500   4.02792337e+03
  1459.000   3.98749678e+03
  1459.500   3.94322206e+03
  1460.000   3.89530090e+03
  1460.500   3.84398413e+03
  1461.000   3.78956351e+03
  1461.500   3.73236276e+03
  1462.000   3.67272841e+03
  1462.500   3.61102077e+03
  1463.000   3.54760534e+03
  1463.500   3.48284506e+03
  1464.000   3.41709357e+03
  1464.500   3.35068948e+03
  1465.000   3.28395185e+03
  1465.500   3.21717686e+03
  1466.000   3.15063540e+03
  1466.500   3.08457183e+03
  1467.000   3.01920337e+03
  1467.500   2.95472041e+03
  1468.000   2.89128722e+03
  1468.500   2.82904317e+03
  1469.000   2.76810431e+03
  1469.500   2.70856507e+03
  1470.000   2.65050013e+03
  1470.500   2.59396635e+03
  1471.000   2.53900467e+03
  1471.500   2.48564191e+03
  1472.000   2.43389257e+03
  1472.500   2.38376042e+03
  1473.000   2.33524000e+03
  1473.500   2.28831801e+03
  1474.000   2.24297452e+03
  1474.500   2.19918403e+03
  1475.000   2.15691649e+03
  1475.500   2.11613804e+03
  1476.000   2.07681183e+03
  1476.500   2.03889853e+03
  1477.000   2.00235693e+03
  1477.500   1.96714431e+03
  1478.000   1.93321683e+03
  1478.500   1.90052981e+03
  1479.000   1.86903796e+03
  1479.500   1.83869563e+03
  1480.000   1.80945691e+03
  1480.500   1.78127582e+03
  1481.000   1.75410642e+03
  1481.500   1.72790296e+03
  1482.000   1.70261999e+03
  1482.500   1.67821251e+03
  1483.000   1.65463617e+03
  1483.500   1.63184741e+03
  1484.000   1.60980366e+03
  1484.500   1.58846361e+03
  1485.000   1.56778745e+03
  1485.500   1.54773707e+03
  1486.000   1.52827639e+03
  1486.500   1.50937159e+03
  1487.000   1.49099130e+03
  1487.500   1.47310687e+03
  1488.000   1.45569243e+03
  1488.500   1.43872510e+03
  1489.000   1.42218490e+03
  1489.500   1.40605482e+03
  1490.000   1.39032066e+03
  1490.500   1.37497092e+03
  1491.000   1.35999654e+03
  1491.500   1.34539066e+03
  1492.000   1.33114836e+03
  1492.500   1.31726633e+03
  1493.000   1.30374257e+03
  1493.500   1.29057609e+03
  1494.000   1.27776664e+03
  1494.500   1.26531445e+03
  1495.000   1.25322001e+03
  1495.500   1.24148389e+03
  1496.000   1.23010658e+03
  1496.500   1.21908837e+03
  1497.000   1.20842931e+03
  1497.500   1.19812911e+03
  1498.000   1.18818716e+03
  1498.500   1.17860247e+03
  1499.000   1.16937375e+03
  1499.500   1.16049938e+03
  1500.000   1.15197751e+03
  1500.500   1.14380602e+03
  1501.000   1.13598266e+03
  1501.500   1.12850503e+03
  1502.000   1.12137067e+03
  1502.500   1.11457709e+03
  1503.000   1.10812183e+03
  1503.500   1.10200248e+03
  1504.000   1.09621677e+03
  1504.500   1.09076255e+03
  1505.000   1.08563786e+03
  1505.500   1.08084094e+03
  1506.000   1.07637029e+03
  1506.500   1.07222465e+03
  1507.000   1.06840305e+03
  1507.500   1.06490482e+03
  1508.000   1.06172961e+03
  1508.500   1.05887737e+03
  1509.000   1.05634842e+03
  1509.500   1.05414339e+03
  1510.000   1.05226328e+03
  1510.500   1.05070943e+03
  1511.000   1.04948351e+03
  1511.500   1.04858756e+03
  1512.000   1.04802393e+03
  1512.500   1.04779531e+03
  1513.000   1.04790468e+03
  1513.500   1.04835532e+03
  1514.000   1.04915077e+03
  1514.500   1.05029481e+03
  1515.000   1.05179140e+03
  1515.500   1.05364465e+03
  1516.000   1.05585879e+03
  1516.500   1.05843806e+03
  1517.000   1.06138669e+03
  1517.500   1.06470875e+03
  1518.000   1.06840815e+03
  1518.500   1.07248842e+03
  1519.000   1.07695267e+03
  1519.500   1.08180343e+03
  1520.000   1.08704246e+03
  1520.500   1.09267065e+03
  1521.000   1.09868774e+03
  1521.500   1.10509223e+03
  1522.000   1.11188107e+03
  1522.500   1.11904948e+03
  1523.000   1.12659073e+03
  1523.500   1.13449587e+03
  1524.000   1.14275348e+03
  1524.500   1.15134951e+03
  1525.000   1.16026700e+03
  1525.500   1.16948588e+03
  1526.000   1.17898288e+03
  1526.500   1.18873135e+03
  1527.000   1.19870122e+03
  1527.500   1.20885903e+03
  1528.000   1.21916802e+03
  1528.500   1.22958829e+03
  1529.000   1.24007716e+03
  1529.500   1.25058952e+03
  1530.000   1.26107846e+03
  1530.500   1.27149590e+03
  1531.000   1.28179344e+03
  1531.500   1.29192328e+03
  1532.000   1.30183935e+03
  1532.500   1.31149836e+03
  1533.000   1.32086110e+03
  1533.500   1.32989362e+03
  1534.000   1.33856842e+03
  1534.500   1.34686556e+03
  1535.000   1.35477360e+03
  1535.500   1.36229035e+03
  1536.000   1.36942342e+03
  1536.500   1.37619043e+03
  1537.000   1.38261897e+03
  1537.500   1.38874623e+03
  1538.000   1.39461846e+03
  1538.500   1.40029003e+03
  1539.000   1.40582246e+03
  1539.500   1.41128316e+03
  1540.000   1.41674424e+03
  1540.500   1.42228121e+03
  1541.000   1.42797173e+03
  1541.500   1.43389448e+03
  1542.000   1.44012810e+03
  1542.500   1.44675035e+03
  1543.000   1.45383735e+03
  1543.500   1.46146304e+03
  1544.000   1.46969877e+03
  1544.500   1.47861307e+03
  1545.000   1.48827151e+03
  1545.500   1.49873668e+03
  1546.000   1.51006832e+03
  1546.500   1.52232341e+03
  1547.000   1.53555641e+03
  1547.500   1.54981945e+03
  1548.000   1.56516258e+03
  1548.500   1.58163399e+03
  1549.000   1.59928021e+03
  1549.500   1.61814632e+03
  1550.000   1.63827603e+03
  1550.500   1.65971178e+03
  1551.000   1.68249476e+03
  1551.500   1.70666486e+03
  1552.000   1.73226050e+03
  1552.500   1.75931845e+03
  1553.000   1.78787349e+03
  1553.500   1.81795798e+03
  1554.000   1.84960134e+03
  1554.500   1.88282935e+03
  1555.000   1.91766340e+03
  1555.500   1.95411949e+03
  1556.000   1.99220719e+03
  1556.500   2.03192835e+03
  1557.000   2.07327570e+03
  1557.500   2.11623126e+03
  1558.000   2.16076459e+03
  1558.500   2.20683088e+03
  1559.000   2.25436894e+03
  1559.500   2.30329900e+03
  1560.000   2.35352055e+03
  1560.500   2.40491004e+03
  1561.000   2.45731871e+03
  1561.500   2.51057053e+03
  1562.000   2.56446042e+03
  1562.500   2.61875273e+03
  1563.000   2.67318035e+03
  1563.500   2.72744439e+03
  1564.000   2.78121473e+03
  1564.500   2.83413149e+03
  1565.000   2.88580764e+03
  1565.500   2.93583288e+03
  1566.000   2.98377877e+03
  1566.500   3.02920519e+03
  1567.000   3.07166812e+03
  1567.500   3.11072847e+03
  1568.000   3.14596187e+03
  1568.500   3.17696893e+03
  1569.000   3.20338575e+03
  1569.500   3.22489406e+03
  1570.000   3.24123058e+03
  1570.500   3.25219503e+03
  1571.000   3.25765646e+03
  1571.500   3.25755736e+03
  1572.000   3.25191548e+03
  1572.500   3.24082314e+03
  1573.000   3.22444410e+03
  1573.500   3.20300821e+03
  1574.000   3.17680407e+03
  1574.500   3.14617031e+03
  1575.000   3.11148569e+03
  1575.500   3.07315879e+03
  1576.000   3.03161759e+03
  1576.500   2.98729947e+03
  1577.000   2.94064195e+03
  1577.500   2.89207448e+03
  1578.000   2.84201135e+03
  1578.500   2.79084603e+03
  1579.000   2.73894669e+03
  1579.500   2.68665307e+03
  1580.000   2.63427450e+03
  1580.500   2.58208890e+03
  1581.000   2.53034273e+03
  1581.500   2.47925161e+03
  1582.000   2.42900153e+03
  1582.500   2.37975049e+03
  1583.000   2.33163044e+03
  1583.500   2.28474936e+03
  1584.000   2.23919349e+03
  1584.500   2.19502953e+03
  1585.000   2.15230683e+03
  1585.500   2.11105945e+03
  1586.000   2.07130818e+03
  1586.500   2.03306232e+03
  1587.000   1.99632136e+03
  1587.500   1.96107657e+03
  1588.000   1.92731227e+03
  1588.500   1.89500715e+03
  1589.000   1.86413529e+03
  1589.500   1.83466714e+03
  1590.000   1.80657031e+03
  1590.500   1.77981034e+03
  1591.000   1.75435126e+03
  1591.500   1.73015615e+03
  1592.000   1.70718756e+03
  1592.500   1.68540789e+03
  1593.000   1.66477972e+03
  1593.500   1.64526604e+03
  1594.000   1.62683047e+03
  1594.500   1.60943742e+03
  1595.000   1.59305224e+03
  1595.500   1.57764131e+03
  1596.000   1.56317211e+03
  1596.500   1.54961333e+03
  1597.000   1.53693481e+03
  1597.500   1.52510767e+03
  1598.000   1.51410425e+03
  1598.500   1.50389813e+03
  1599.000   1.49446414e+03
  1599.500   1.48577833e+03
  1600.000   1.47781794e+03
  1600.500   1.47056140e+03
  1601.000   1.46398830e+03
  1601.500   1.45807933e+03
  1602.000   1.45281630e+03
  1602.500   1.44818206e+03
  1603.000   1.44416050e+03
  1603.500   1.44073651e+03
  1604.000   1.43789593e+03
  1604.500   1.43562556e+03
  1605.000   1.43391307e+03
  1605.500   1.43274702e+03
  1606.000   1.43211683e+03
  1606.500   1.43201271e+03
  1607.000   1.43242567e+03
  1607.500   1.43334750e+03
  1608.000   1.43477070e+03
  1608.500   1.43668853e+03
  1609.000   1.43909492e+03
  1609.500   1.44198449e+03
  1610.000   1.44535251e+03
  1610.500   1.44919491e+03
  1611.000   1.45350825e+03
  1611.500   1.45828969e+03
  1612.000   1.46353699e+03
  1612.500   1.46924853e+03
  1613.000   1.47542324e+03
  1613.500   1.48206063e+03
  1614.000   1.48916080e+03
  1614.500   1.49672437e+03
  1615.000   1.50475253e+03
  1615.500   1.51324704e+03
  1616.000   1.52221018e+03
  1616.500   1.53164479e+03
  1617.000   1.54155426e+03
  1617.500   1.55194250e+03
  1618.000   1.56281402e+03
  1618.500   1.57417384e+03
  1619.000   1.58602755e+03
  1619.500   1.59838133e+03
  1620.000   1.61124190e+03
  1620.500   1.62461657e+03
  1621.000   1.63851325e+03
  1621.500   1.65294045e+03
  1622.000   1.66790728e+03
  1622.500   1.68342350e+03
  1623.000   1.69949949e+03
  1623.500   1.71614631e+03
  1624.000   1.73337570e+03
  1624.500   1.75120008e+03
  1625.000   1.76963260e+03
  1625.500   1.78868715e+03
  1626.000   1.80837839e+03
  1626.500   1.82872176e+03
  1627.000   1.84973354e+03
  1627.500   1.87143083e+03
  1628.000   1.89383164e+03
  1628.500   1.91695488e+03
  1629.000   1.94082041e+03
  1629.500   1.96544907e+03
  1630.000   1.99086273e+03
  1630.500   2.01708432e+03
  1631.000   2.04413790e+03
  1631.500   2.07204864e+03
  1632.000   2.10084296e+03
  1632.500   2.13054849e+03
  1633.000   2.16119419e+03
  1633.500   2.19281035e+03
  1634.000   2.22542870e+03
  1634.500   2.25908241e+03
  1635.000   2.29380619e+03
  1635.500   2.32963634e+03
  1636.000   2.36661079e+03
  1636.500   2.40476920e+03
  1637.000   2.44415300e+03
  1637.500   2.48480545e+03
  1638.000   2.52677172e+03
  1638.500   2.57009894e+03
  1639.000   2.61483625e+03
  1639.500   2.66103489e+03
  1640.000   2.70874820e+03
  1640.500   2.75803172e+03
  1641.000   2.80894320e+03
  1641.500   2.86154262e+03
  1642.000   2.91589225e+03
  1642.500   2.97205658e+03
  1643.000   3.03010240e+03
  1643.500   3.09009868e+03
  1644.000   3.15211654e+03
  1644.500   3.21622918e+03
  1645.000   3.28251173e+03
  1645.500   3.35104107e+03
  1646.000   3.42189565e+03
  1646.500   3.49515519e+03
  1647.000   3.57090035e+03
  1647.500   3.64921235e+03
  1648.000   3.73017245e+03
  1648.500   3.81386139e+03
  1649.000   3.90035874e+03
  1649.500   3.98974205e+03
  1650.000   4.08208603e+03
  1650.500   4.17746148e+03
  1651.000   4.27593414e+03
  1651.500   4.37756340e+03
  1652.000   4.48240092e+03
  1652.500   4.59048905e+03
  1653.000   4.70185919e+03
  1653.500   4.81653008e+03
  1654.000   4.93450601e+03
  1654.500   5.05577504e+03
  1655.000   5.18030723e+03
  1655.500   5.30805309e+03
  1656.000   5.43894221e+03
  1656.500   5.57288220e+03
  1657.000   5.70975809e+03
  1657.500   5.84943241e+03
  1658.000   5.99174587e+03
  1658.500   6.13651904e+03
  1659.000   6.28355490e+03
  1659.500   6.43264263e+03
  1660.000   6.58356246e+03
  1660.500   6.73609175e+03
  1661.000   6.89001219e+03
  1661.500   7.04511803e+03
  1662.000   7.20122504e+03
  1662.500   7.35818006e+03
  1663.000   7.51587064e+03
  1663.500   7.67423439e+03
  1664.000   7.83326767e+03
  1664.500   7.99303307e+03
  1665.000   8.15366536e+03
  1665.500   8.31537549e+03
  1666.000   8.47845253e+03
  1666.500   8.64326330e+03
  1667.000   8.81024985e+03
  1667.500   8.97992486e+03
  1668.000   9.15286527e+03
  1668.500   9.32970441e+03
  1669.000   9.51112317e+03
  1669.500   9.69784053e+03
  1670.000   9.89060381e+03
  1670.500   1.00901791e+04
  1671.000   1.02973422e+04
  1671.500   1.05128698e+04
  1672.000   1.07375320e+04
  1672.500   1.09720848e+04
  1673.000   1.12172641e+04
  1673.500   1.14737794e+04
  1674.000   1.17423090e+04
  1674.500   1.20234940e+04
  1675.000   1.23179336e+04
  1675.500   1.26261794e+04
  1676.000   1.29487294e+04
  1676.500   1.32860210e+04
  1677.000   1.36384234e+04
  1677.500   1.40062285e+04
  1678.000   1.43896407e+04
  1678.500   1.47887650e+04
  1679.000   1.52035933e+04
  1679.500   1.56339894e+04
  1680.000   1.60796723e+04
  1680.500   1.65401973e+04
  1681.000   1.70149366e+04
  1681.500   1.75030581e+04
  1682.000   1.80035037e+04
  1682.500   1.85149680e+04
  1683.000   1.90358763e+04
  1683.500   1.95643659e+04
  1684.000   2.00982691e+04
  1684.500   2.06351000e+04
  1685.000   2.11720477e+04
  1685.500   2.17059760e+04
  1686.000   2.22334319e+04
  1686.500   2.27506641e+04
  1687.000   2.32536540e+04
  1687.500   2.37381587e+04
  1688.000   2.41997678e+04
  1688.500   2.46339733e+04
  1689.000   2.50362521e+04
  1689.500   2.54021596e+04
  1690.000   2.57274307e+04
  1690.500   2.60080863e+04
  1691.000   2.62405392e+04
  1691.500   2.64216957e+04
  1692.000   2.65490474e+04
  1692.500   2.66207483e+04
  1693.000   2.66356729e+04
  1693.500   2.65934512e+04
  1694.000   2.64944801e+04
  1694.500   2.63399087e+04
  1695.000   2.61315996e+04
  1695.500   2.58720679e+04
  1696.000   2.55644023e+04
  1696.500   2.52121716e+04
  1697.000   2.48193226e+04
  1697.500   2.43900740e+04
  1698.000   2.39288116e+04
  1698.500   2.34399877e+04
  1699.000   2.29280302e+04
  1699.500   2.23972617e+04
  1700.000   2.18518323e+04
  1700.500   2.12956648e+04
  1701.000   2.07324134e+04
  1701.500   2.01654356e+04
  1702.000   1.95977749e+04
  1702.500   1.90321539e+04
  1703.000   1.84709756e+04
  1703.500   1.79163318e+04
  1704.000   1.73700171e+04
  1704.500   1.68335464e+04
  1705.000   1.63081748e+04
  1705.500   1.57949202e+04
  1706.000   1.52945853e+04
  1706.500   1.48077801e+04
  1707.000   1.43349443e+04
  1707.500   1.38763676e+04
  1708.000   1.34322096e+04
  1708.500   1.30025183e+04
  1709.000   1.25872461e+04
  1709.500   1.21862655e+04
  1710.000   1.17993819e+04
  1710.500   1.14263464e+04
  1711.000   1.10668658e+04
  1711.500   1.07206119e+04
  1712.000   1.03872300e+04
  1712.500   1.00663453e+04
  1713.000   9.75756913e+03
  1713.500   9.46050405e+03
  1714.000   9.17474797e+03
  1714.500   8.89989782e+03
  1715.000   8.63555246e+03
  1715.500   8.38131517e+03
  1716.000   8.13679559e+03
  1716.500   7.90161129e+03
  1717.000   7.67538902e+03
  1717.500   7.45776563e+03
  1718.000   7.24838878e+03
  1718.500   7.04691740e+03
  1719.000   6.85302205e+03
  1719.500   6.66638501e+03
  1720.000   6.48670034e+03
  1720.500   6.31367386e+03
  1721.000   6.14702294e+03
  1721.500   5.98647632e+03
  1722.000   5.83177388e+03
  1722.500   5.68266625e+03
  1723.000   5.53891459e+03
  1723.500   5.40029014e+03
  1724.000   5.26657394e+03
  1724.500   5.13755638e+03
  1725.000   5.01303692e+03
  1725.500   4.89282367e+03
  1726.000   4.77673306e+03
  1726.500   4.66458950e+03
  1727.000   4.55622508e+03
  1727.500   4.45147925e+03
  1728.000   4.35019857e+03
  1728.500   4.25223643e+03
  1729.000   4.15745283e+03
  1729.500   4.06571416e+03
  1730.000   3.97689300e+03
  1730.500   3.89086795e+03
  1731.000   3.80752341e+03
  1731.500   3.72674944e+03
  1732.000   3.64844158e+03
  1732.500   3.57250064e+03
  1733.000   3.49883253e+03
  1733.500   3.42734804e+03
  1734.000   3.35796264e+03
  1734.500   3.29059626e+03
  1735.000   3.22517302e+03
  1735.500   3.16162099e+03
  1736.000   3.09987199e+03
  1736.500   3.03986127e+03
  1737.000   2.98152732e+03
  1737.500   2.92481158e+03
  1738.000   2.86965829e+03
  1738.500   2.81601420e+03
  1739.000   2.76382841e+03
  1739.500   2.71305223e+03
  1740.000   2.66363893e+03
  1740.500   2.61554369e+03
  1741.000   2.56872342e+03
  1741.500   2.52313665e+03
  1742.000   2.47874349e+03
  1742.500   2.43550544e+03
  1743.000   2.39338545e+03
  1743.500   2.35234772e+03
  1744.000   2.31235775e+03
  1744.500   2.27338224e+03
  1745.000   2.23538902e+03
  1745.500   2.19834707e+03
  1746.000   2.16222642e+03
  1746.500   2.12699818e+03
  1747.000   2.09263441e+03
  1747.500   2.05910820e+03
  1748.000   2.02639353e+03
  1748.500   1.99446531e+03
  1749.000   1.96329934e+03
  1749.500   1.93287226e+03
  1750.000   1.90316151e+03
  1750.500   1.87414534e+03
  1751.000   1.84580278e+03
  1751.500   1.81811356e+03
  1752.000   1.79105816e+03
  1752.500   1.76461771e+03
  1753.000   1.73877403e+03
  1753.500   1.71350955e+03
  1754.000   1.68880734e+03
  1754.500   1.66465104e+03
  1755.000   1.64102485e+03
  1755.500   1.61791356e+03
  1756.000   1.59530243e+03
  1756.500   1.57317727e+03
  1757.000   1.55152435e+03
  1757.500   1.53033042e+03
  1758.000   1.50958268e+03
  1758.500   1.48926875e+03
  1759.000   1.46937669e+03
  1759.500   1.44989495e+03
  1760.000   1.43081235e+03
  1760.500   1.41211809e+03
  1761.000   1.39380175e+03
  1761.500   1.37585323e+03
  1762.000   1.35826274e+03
  1762.500   1.34102086e+03
  1763.000   1.32411843e+03
  1763.500   1.30754661e+03
  1764.000   1.29129683e+03
  1764.500   1.27536079e+03
  1765.000   1.25973047e+03
  1765.500   1.24439809e+03
  1766.000   1.22935610e+03
  1766.500   1.21459723e+03
  1767.000   1.20011438e+03
  1767.500   1.18590070e+03
  1768.000   1.17194956e+03
  1768.500   1.15825449e+03
  1769.000   1.14480926e+03
  1769.500   1.13160781e+03
  1770.000   1.11864425e+03
  1770.500   1.10591289e+03
  1771.000   1.09340818e+03
  1771.500   1.08112476e+03
  1772.000   1.06905741e+03
  1772.500   1.05720107e+03
  1773.000   1.04555082e+03
  1773.500   1.03410189e+03
  1774.000   1.02284964e+03
  1774.500   1.01178957e+03
  1775.000   1.00091730e+03
  1775.500   9.90228580e+02
  1776.000   9.79719269e+02
  1776.500   9.69385350e+02
  1777.000   9.59222917e+02
  1777.500   9.49228169e+02
  1778.000   9.39397412e+02
  1778.500   9.29727051e+02
  1779.000   9.20213589e+02
  1779.500   9.10853624e+02
  1780.000   9.01643846e+02
  1780.500   8.92581032e+02
  1781.000   8.83662047e+02
  1781.500   8.74883836e+02
  1782.000   8.66243428e+02
  1782.500   8.57737927e+02
  1783.000   8.49364515e+02
  1783.500   8.41120444e+02
  1784.000   8.33003039e+02
  1784.500   8.25009695e+02
  1785.000   8.17137871e+02
  1785.500   8.09385091e+02
  1786.000   8.01748944e+02
  1786.500   7.94227077e+02
  1787.000   7.86817197e+02
  1787.500   7.79517068e+02
  1788.000   7.72324510e+02
  1788.500   7.65237397e+02
  1789.000   7.58253655e+02
  1789.500   7.51371260e+02
  1790.000   7.44588238e+02
  1790.500   7.37902662e+02
  1791.000   7.31312654e+02
  1791.500   7.24816377e+02
  1792.000   7.18412042e+02
  1792.500   7.12097899e+02
  1793.000   7.05872243e+02
  1793.500   6.99733406e+02
  1794.000   6.93679760e+02
  1794.500   6.87709717e+02
  1795.000   6.81821723e+02
  1795.500   6.76014261e+02
  1796.000   6.70285850e+02
  1796.500   6.64635043e+02
  1797.000   6.59060423e+02
  1797.500   6.53560608e+02
  1798.000   6.48134248e+02
  1798.500   6.42780020e+02
  1799.000   6.37496634e+02
  1799.500   6.32282827e+02
  1800.000   6.27137365e+02
  1800.500   6.22059039e+02
  1801.000   6.17046671e+02
  1801.500   6.12099105e+02
  1802.000   6.07215211e+02
  1802.500   6.02393884e+02
  1803.000   5.97634045e+02
  1803.500   5.92934634e+02
  1804.000   5.88294617e+02
  1804.500   5.83712981e+02
  1805.000   5.79188734e+02
  1805.500   5.74720907e+02
  1806.000   5.70308550e+02
  1806.500   5.65950732e+02
  1807.000   5.61646543e+02
  1807.500   5.57395092e+02
  1808.000   5.53195506e+02
  1808.500   5.49046930e+02
  1809.000   5.44948526e+02
  1809.500   5.40899476e+02
  1810.000   5.36898974e+02
  1810.500   5.32946234e+02
  1811.000   5.29040486e+02
  1811.500   5.25180973e+02
  1812.000   5.21366956e+02
  1812.500   5.17597708e+02
  1813.000   5.13872519e+02
  1813.500   5.10190691e+02
  1814.000   5.06551542e+02
  1814.500   5.02954402e+02
  1815.000   4.99398615e+02
  1815.500   4.95883535e+02
  1816.000   4.92408533e+02
  1816.500   4.88972990e+02
  1817.000   4.85576298e+02
  1817.500   4.82217862e+02
  1818.000   4.78897098e+02
  1818.500   4.75613434e+02
  1819.000   4.72366308e+02
  1819.500   4.69155167e+02
  1820.000   4.65979473e+02
  1820.500   4.62838693e+02
  1821.000   4.59732308e+02
  1821.500   4.56659806e+02
  1822.000   4.53620686e+02
  1822.500   4.50614456e+02
  1823.000   4.47640633e+02
  1823.500   4.44698742e+02
  1824.000   4.41788318e+02
  1824.500   4.38908905e+02
  1825.000   4.36060052e+02
  1825.500   4.33241321e+02
  1826.000   4.30452278e+02
  1826.500   4.27692498e+02
  1827.000   4.24961564e+02
  1827.500   4.22259067e+02
  1828.000   4.19584604e+02
  1828.500   4.16937780e+02
  1829.000   4.14318207e+02
  1829.500   4.11725502e+02
  1830.000   4.09159292e+02
  1830.500   4.06619208e+02
  1831.000   4.04104888e+02
  1831.500   4.01615976e+02
  1832.000   3.99152124e+02
  1832.500   3.96712988e+02
  1833.000   3.94298231e+02
  1833.500   3.91907521e+02
  1834.000   3.89540531e+02
  1834.500   3.87196942e+02
  1835.000   3.84876438e+02
  1835.500   3.82578711e+02
  1836.000   3.80303454e+02
  1836.500   3.78050370e+02
  1837.000   3.75819163e+02
  1837.500   3.73609544e+02
  1838.000   3.71421228e+02
  1838.500   3.69253936e+02
  1839.000   3.67107392e+02
  1839.500   3.64981325e+02
  1840.000   3.62875470e+02
  1840.500   3.60789563e+02
  1841.000   3.58723348e+02
  1841.500   3.56676571e+02
  1842.000   3.54648982e+02
  1842.500   3.52640335e+02
  1843.000   3.50650390e+02
  1843.500   3.48678909e+02
  1844.000   3.46725658e+02
  1844.500   3.44790406e+02
  1845.000   3.42872928e+02
  1845.500   3.40973000e+02
  1846.000   3.39090404e+02
  1846.500   3.37224923e+02
  1847.000   3.35376344e+02
  1847.500   3.33544459e+02
  1848.000   3.31729061e+02
  1848.500   3.29929948e+02
  1849.000   3.28146921e+02
  1849.500   3.26379781e+02
  1850.000   3.24628337e+02
  1850.500   3.22892398e+02
  1851.000   3.21171775e+02
  1851.500   3.19466284e+02
  1852.000   3.17775744e+02
  1852.500   3.16099974e+02
  1853.000   3.14438799e+02
  1853.500   3.12792044e+02
  1854.000   3.11159538e+02
  1854.500   3.09541112e+02
  1855.000   3.07936601e+02
  1855.500   3.06345841e+02
  1856.000   3.04768669e+02
  1856.500   3.03204928e+02
  1857.000   3.01654461e+02
  1857.500   3.00117113e+02
  1858.000   2.98592732e+02
  1858.500   2.97081169e+02
  1859.000   2.95582276e+02
  1859.500   2.94095908e+02
  1860.000   2.92621921e+02
  1860.500   2.91160173e+02
  1861.000   2.89710526e+02
  1861.500   2.88272843e+02
  1862.000   2.86846987e+02
  1862.500   2.85432826e+02
  1863.000   2.84030228e+02
  1863.500   2.82639063e+02
  1864.000   2.81259204e+02
  1864.500   2.79890525e+02
  1865.000   2.78532901e+02
  1865.500   2.77186210e+02
  1866.000   2.75850331e+02
  1866.500   2.74525145e+02
  1867.000   2.73210534e+02
  1867.500   2.71906384e+02
  1868.000   2.70612578e+02
  1868.500   2.69329006e+02
  1869.000   2.68055556e+02
  1869.500   2.66792118e+02
  1870.000   2.65538583e+02
  1870.500   2.64294847e+02
  1871.000   2.63060803e+02
  1871.500   2.61836347e+02
  1872.000   2.60621378e+02
  1872.500   2.59415794e+02
  1873.000   2.58219495e+02
  1873.500   2.57032384e+02
  1874.000   2.55854364e+02
  1874.500   2.54685339e+02
  1875.000   2.53525213e+02
  1875.500   2.52373896e+02
  1876.000   2.51231293e+02
  1876.500   2.50097315e+02
  1877.000   2.48971873e+02
  1877.500   2.47854877e+02
  1878.000   2.46746241e+02
  1878.500   2.45645878e+02
  1879.000   2.44553704e+02
  1879.500   2.43469635e+02
  1880.000   2.42393588e+02
  1880.500   2.41325481e+02
  1881.000   2.40265234e+02
  1881.500   2.39212767e+02
  1882.000   2.38168002e+02
  1882.500   2.37130861e+02
  1883.000   2.36101267e+02
  1883.500   2.35079145e+02
  1884.000   2.34064421e+02
  1884.500   2.33057019e+02
  1885.000   2.32056869e+02
  1885.500   2.31063897e+02
  1886.000   2.30078033e+02
  1886.500   2.29099206e+02
  1887.000   2.28127348e+02
  1887.500   2.27162391e+02
  1888.000   2.26204266e+02
  1888.500   2.25252907e+02
  1889.000   2.24308248e+02
  1889.500   2.23370224e+02
  1890.000   2.22438771e+02
  1890.500   2.21513826e+02
  1891.000   2.20595325e+02
  1891.500   2.19683207e+02
  1892.000   2.18777411e+02
  1892.500   2.17877876e+02
  1893.000   2.16984542e+02
  1893.500   2.16097351e+02
  1894.000   2.15216245e+02
  1894.500   2.14341165e+02
  1895.000   2.13472055e+02
  1895.500   2.12608859e+02
  1896.000   2.11751520e+02
  1896.500   2.10899986e+02
  1897.000   2.10054200e+02
  1897.500   2.09214110e+02
  1898.000   2.08379662e+02
  1898.500   2.07550805e+02
  1899.000   2.06727486e+02
  1899.500   2.05909655e+02
  1900.000   2.05097260e+02
  1900.500   2.04290253e+02
  1901.000   2.03488583e+02
  1901.500   2.02692203e+02
  1902.000   2.01901063e+02
  1902.500   2.01115116e+02
  1903.000   2.00334315e+02
  1903.500   1.99558613e+02
  1904.000   1.98787965e+02
  1904.500   1.98022325e+02
  1905.000   1.97261648e+02
  1905.500   1.96505890e+02
  1906.000   1.95755006e+02
  1906.500   1.95008953e+02
  1907.000   1.94267688e+02
  1907.500   1.93531169e+02
  1908.000   1.92799353e+02
  1908.500   1.92072199e+02
  1909.000   1.91349667e+02
  1909.500   1.90631715e+02
  1910.000   1.89918303e+02
  1910.500   1.89209391e+02
  1911.000   1.88504941e+02
  1911.500   1.87804913e+02
  1912.000   1.87109270e+02
  1912.500   1.86417972e+02
  1913.000   1.85730982e+02
  1913.500   1.85048264e+02
  1914.000   1.84369781e+02
  1914.500   1.83695495e+02
  1915.000   1.83025372e+02
  1915.500   1.82359376e+02
  1916.000   1.81697470e+02
  1916.500   1.81039622e+02
  1917.000   1.80385796e+02
  1917.500   1.79735958e+02
  1918.000   1.79090074e+02
  1918.500   1.78448112e+02
  1919.000   1.77810038e+02
  1919.500   1.77175819e+02
  1920.000   1.76545424e+02
  1920.500   1.75918820e+02
  1921.000   1.75295976e+02
  1921.500   1.74676860e+02
  1922.000   1.74061442e+02
  1922.500   1.73449691e+02
  1923.000   1.72841576e+02
  1923.500   1.72237069e+02
  1924.000   1.71636138e+02
  1924.500   1.71038755e+02
  1925.000   1.70444891e+02
  1925.500   1.69854517e+02
  1926.000   1.69267605e+02
  1926.500   1.68684126e+02
  1927.000   1.68104052e+02
  1927.500   1.67527356e+02
  1928.000   1.66954011e+02
  1928.500   1.66383990e+02
  1929.000   1.65817266e+02
  1929.500   1.65253812e+02
  1930.000   1.64693603e+02
  1930.500   1.64136612e+02
  1931.000   1.63582814e+02
  1931.500   1.63032183e+02
  1932.000   1.62484694e+02
  1932.500   1.61940323e+02
  1933.000   1.61399045e+02
  1933.500   1.60860835e+02
  1934.000   1.60325669e+02
  1934.500   1.59793523e+02
  1935.000   1.59264374e+02
  1935.500   1.58738198e+02
  1936.000   1.58214972e+02
  1936.500   1.57694674e+02
  1937.000   1.57177279e+02
  1937.500   1.56662766e+02
  1938.000   1.56151113e+02
  1938.500   1.55642297e+02
  1939.000   1.55136297e+02
  1939.500   1.54633091e+02
  1940.000   1.54132657e+02
  1940.500   1.53634975e+02
  1941.000   1.53140022e+02
  1941.500   1.52647780e+02
  1942.000   1.52158226e+02
  1942.500   1.51671340e+02
  1943.000   1.51187103e+02
  1943.500   1.50705494e+02
  1944.000   1.50226493e+02
  1944.500   1.49750081e+02
  1945.000   1.49276239e+02
  1945.500   1.48804946e+02
  1946.000   1.48336185e+02
  1946.500   1.47869935e+02
  1947.000   1.47406179e+02
  1947.500   1.46944897e+02
  1948.000   1.46486072e+02
  1948.500   1.46029686e+02
  1949.000   1.45575719e+02
  1949.500   1.45124155e+02
  1950.000   1.44674976e+02
  1950.500   1.44228163e+02
  1951.000   1.43783701e+02
  1951.500   1.43341571e+02
  1952.000   1.42901757e+02
  1952.500   1.42464242e+02
  1953.000   1.42029008e+02
  1953.500   1.41596040e+02
  1954.000   1.41165321e+02
  1954.500   1.40736835e+02
  1955.000   1.40310566e+02
  1955.500   1.39886497e+02
  1956.000   1.39464613e+02
  1956.500   1.39044898e+02
  1957.000   1.38627337e+02
  1957.500   1.38211915e+02
  1958.000   1.37798615e+02
  1958.500   1.37387424e+02
  1959.000   1.36978325e+02
  1959.500   1.36571305e+02
  1960.000   1.36166348e+02
  1960.500   1.35763440e+02
  1961.000   1.35362566e+02
  1961.500   1.34963713e+02
  1962.000   1.34566866e+02
  1962.500   1.34172010e+02
  1963.000   1.33779133e+02
  1963.500   1.33388219e+02
  1964.000   1.32999256e+02
  1964.500   1.32612231e+02
  1965.000   1.32227128e+02
  1965.500   1.31843936e+02
  1966.000   1.31462641e+02
  1966.500   1.31083230e+02
  1967.000   1.30705689e+02
  1967.500   1.30330007e+02
  1968.000   1.29956170e+02
  1968.500   1.29584166e+02
  1969.000   1.29213982e+02
  1969.500   1.28845606e+02
  1970.000   1.28479025e+02
  1970.500   1.28114227e+02
  1971.000   1.27751201e+02
  1971.500   1.27389934e+02
  1972.000   1.27030414e+02
  1972.500   1.26672629e+02
  1973.000   1.26316569e+02
  1973.500   1.25962220e+02
  1974.000   1.25609573e+02
  1974.500   1.25258614e+02
  1975.000   1.24909334e+02
  1975.500   1.24561721e+02
  1976.000   1.24215763e+02
  1976.500   1.23871451e+02
  1977.000   1.23528772e+02
  1977.500   1.23187716e+02
  1978.000   1.22848272e+02
  1978.500   1.22510431e+02
  1979.000   1.22174180e+02
  1979.500   1.21839510e+02
  1980.000   1.21506411e+02
  1980.500   1.21174871e+02
  1981.000   1.20844882e+02
  1981.500   1.20516432e+02
  1982.000   1.20189511e+02
  1982.500   1.19864111e+02
  1983.000   1.19540221e+02
  1983.500   1.19217830e+02
  1984.000   1.18896930e+02
  1984.500   1.18577511e+02
  1985.000   1.18259563e+02
  1985.500   1.17943077e+02
  1986.000   1.17628044e+02
  1986.500   1.17314453e+02
  1987.000   1.17002296e+02
  1987.500   1.16691565e+02
  1988.000   1.16382248e+02
  1988.500   1.16074339e+02
  1989.000   1.15767827e+02
  1989.500   1.15462704e+02
  1990.000   1.15158961e+02
  1990.500   1.14856589e+02
  1991.000   1.14555580e+02
  1991.500   1.14255925e+02
  1992.000   1.13957616e+02
  1992.500   1.13660644e+02
  1993.000   1.13365001e+02
  1993.500   1.13070678e+02
  1994.000   1.12777667e+02
  1994.500   1.12485961e+02
  1995.000   1.12195550e+02
  1995.500   1.11906428e+02
  1996.000   1.11618585e+02
  1996.500   1.11332014e+02
  1997.000   1.11046708e+02
  1997.500   1.10762657e+02
  1998.000   1.10479856e+02
  1998.500   1.10198295e+02
  1999.000   1.09917968e+02
  1999.500   1.09638866e+02
  2000.000   1.09360983e+02
  2000.500   1.09084311e+02
  2001.000   1.08808842e+02
  2001.500   1.08534569e+02
  2002.000   1.08261485e+02
  2002.500   1.07989583e+02
  2003.000   1.07718856e+02
  2003.500   1.07449296e+02
  2004.000   1.07180896e+02
  2004.500   1.06913650e+02
  2005.000   1.06647550e+02
  2005.500   1.06382590e+02
  2006.000   1.06118762e+02
  2006.500   1.05856061e+02
  2007.000   1.05594479e+02
  2007.500   1.05334009e+02
  2008.000   1.05074646e+02
  2008.500   1.04816382e+02
  2009.000   1.04559211e+02
  2009.500   1.04303126e+02
  2010.000   1.04048121e+02
  2010.500   1.03794190e+02
  2011.000   1.03541327e+02
  2011.500   1.03289524e+02
  2012.000   1.03038776e+02
  2012.500   1.02789077e+02
  2013.000   1.02540420e+02
  2013.500   1.02292800e+02
  2014.000   1.02046210e+02
  2014.500   1.01800644e+02
  2015.000   1.01556097e+02
  2015.500   1.01312562e+02
  2016.000   1.01070034e+02
  2016.500   1.00828507e+02
  2017.000   1.00587974e+02
  2017.500   1.00348431e+02
  2018.000   1.00109872e+02
  2018.500   9.98722905e+01
  2019.000   9.96356812e+01
  2019.500   9.94000388e+01
  2020.000   9.91653575e+01
  2020.500   9.89316320e+01
  2021.000   9.86988567e+01
  2021.500   9.84670263e+01
  2022.000   9.82361354e+01
  2022.500   9.80061786e+01
  2023.000   9.77771507e+01
  2023.500   9.75490464e+01
  2024.000   9.73218606e+01
  2024.500   9.70955879e+01
  2025.000   9.68702233e+01
  2025.500   9.66457617e+01
  2026.000   9.64221979e+01
  2026.500   9.61995271e+01
  2027.000   9.59777441e+01
  2027.500   9.57568440e+01
  2028.000   9.55368219e+01
  2028.500   9.53176730e+01
  2029.000   9.50993923e+01
  2029.500   9.48819750e+01
  2030.000   9.46654163e+01
  2030.500   9.44497115e+01
  2031.000   9.42348560e+01
  2031.500   9.40208449e+01
  2032.000   9.38076736e+01
  2032.500   9.35953376e+01
  2033.000   9.33838322e+01
  2033.500   9.31731528e+01
  2034.000   9.29632951e+01
  2034.500   9.27542544e+01
  2035.000   9.25460263e+01
  2035.500   9.23386064e+01
  2036.000   9.21319903e+01
  2036.500   9.19261736e+01
  2037.000   9.17211520e+01
  2037.500   9.15169211e+01
  2038.000   9.13134768e+01
  2038.500   9.11108147e+01
  2039.000   9.09089307e+01
  2039.500   9.07078205e+01
  2040.000   9.05074800e+01
  2040.500   9.03079050e+01
  2041.000   9.01090916e+01
  2041.500   8.99110355e+01
  2042.000   8.97137328e+01
  2042.500   8.95171793e+01
  2043.000   8.93213713e+01
  2043.500   8.91263045e+01
  2044.000   8.89319753e+01
  2044.500   8.87383795e+01
  2045.000   8.85455134e+01
  2045.500   8.83533731e+01
  2046.000   8.81619547e+01
  2046.500   8.79712545e+01
  2047.000   8.77812686e+01
  2047.500   8.75919934e+01
  2048.000   8.74034250e+01
  2048.500   8.72155598e+01
  2049.000   8.70283942e+01
  2049.500   8.68419244e+01
  2050.000   8.66561468e+01
  2050.500   8.64710578e+01
  2051.000   8.62866539e+01
  2051.500   8.61029314e+01
  2052.000   8.59198869e+01
  2052.500   8.57375169e+01
  2053.000   8.55558178e+01
  2053.500   8.53747862e+01
  2054.000   8.51944186e+01
  2054.500   8.50147116e+01
  2055.000   8.48356619e+01
  2055.500   8.46572661e+01
  2056.000   8.44795207e+01
  2056.500   8.43024226e+01
  2057.000   8.41259683e+01
  2057.500   8.39501546e+01
  2058.000   8.37749782e+01
  2058.500   8.36004359e+01
  2059.000   8.34265245e+01
  2059.500   8.32532407e+01
  2060.000   8.30805815e+01
  2060.500   8.29085435e+01
  2061.000   8.27371237e+01
  2061.500   8.25663190e+01
  2062.000   8.23961263e+01
  2062.500   8.22265424e+01
  2063.000   8.20575644e+01
  2063.500   8.18891892e+01
  2064.000   8.17214138e+01
  2064.500   8.15542351e+01
  2065.000   8.13876502e+01
  2065.500   8.12216562e+01
  2066.000   8.10562500e+01
  2066.500   8.08914289e+01
  2067.000   8.07271898e+01
  2067.500   8.05635298e+01
  2068.000   8.04004462e+01
  2068.500   8.02379361e+01
  2069.000   8.00759965e+01
  2069.500   7.99146248e+01
  2070.000   7.97538182e+01
  2070.500   7.95935737e+01
  2071.000   7.94338887e+01
  2071.500   7.92747605e+01
  2072.000   7.91161863e+01
  2072.500   7.89581634e+01
  2073.000   7.88006891e+01
  2073.500   7.86437608e+01
  2074.000   7.84873757e+01
  2074.500   7.83315312e+01
  2075.000   7.81762248e+01
  2075.500   7.80214538e+01
  2076.000   7.78672156e+01
  2076.500   7.77135076e+01
  2077.000   7.75603273e+01
  2077.500   7.74076721e+01
  2078.000   7.72555395e+01
  2078.500   7.71039270e+01
  2079.000   7.69528321e+01
  2079.500   7.68022523e+01
  2080.000   7.66521852e+01
  2080.500   7.65026282e+01
  2081.000   7.63535790e+01
  2081.500   7.62050351e+01
  2082.000   7.60569941e+01
  2082.500   7.59094537e+01
  2083.000   7.57624114e+01
  2083.500   7.56158649e+01
  2084.000   7.54698118e+01
  2084.500   7.53242499e+01
  2085.000   7.51791767e+01
  2085.500   7.50345900e+01
  2086.000   7.48904875e+01
  2086.500   7.47468669e+01
  2087.000   7.46037260e+01
  2087.500   7.44610624e+01
  2088.000   7.43188740e+01
  2088.500   7.41771586e+01
  2089.000   7.40359138e+01
  2089.500   7.38951376e+01
  2090.000   7.37548277e+01
  2090.500   7.36149820e+01
  2091.000   7.34755983e+01
  2091.500   7.33366744e+01
  2092.000   7.31982083e+01
  2092.500   7.30601978e+01
  2093.000   7.29226408e+01
  2093.500   7.27855352e+01
  2094.000   7.26488790e+01
  2094.500   7.25126700e+01
  2095.000   7.23769062e+01
  2095.500   7.22415855e+01
  2096.000   7.21067060e+01
  2096.500   7.19722656e+01
  2097.000   7.18382622e+01
  2097.500   7.17046940e+01
  2098.000   7.15715589e+01
  2098.500   7.14388549e+01
  2099.000   7.13065800e+01
  2099.500   7.11747324e+01
  2100.000   7.10433101e+01
  2100.500   7.09123111e+01
  2101.000   7.07817336e+01
  2101.500   7.06515755e+01
  2102.000   7.05218352e+01
  2102.500   7.03925105e+01
  2103.000   7.02635997e+01
  2103.500   7.01351010e+01
  2104.000   7.00070124e+01
  2104.500   6.98793321e+01
  2105.000   6.97520583e+01
  2105.500   6.96251892e+01
  2106.000   6.94987230e+01
  2106.500   6.93726578e+01
  2107.000   6.92469919e+01
  2107.500   6.91217235e+01
  2108.000   6.89968508e+01
  2108.500   6.88723720e+01
  2109.000   6.87482855e+01
  2109.500   6.86245895e+01
  2110.000   6.85012823e+01
  2110.500   6.83783620e+01
  2111.000   6.82558271e+01
  2111.500   6.81336759e+01
  2112.000   6.80119065e+01
  2112.500   6.78905175e+01
  2113.000   6.77695070e+01
  2113.500   6.76488735e+01
  2114.000   6.75286152e+01
  2114.500   6.74087306e+01
  2115.000   6.72892179e+01
  2115.500   6.71700757e+01
  2116.000   6.70513022e+01
  2116.500   6.69328959e+01
  2117.000   6.68148552e+01
  2117.500   6.66971784e+01
  2118.000   6.65798640e+01
  2118.500   6.64629105e+01
  2119.000   6.63463162e+01
  2119.500   6.62300796e+01
  2120.000   6.61141992e+01
  2120.500   6.59986735e+01
  2121.000   6.58835008e+01
  2121.500   6.57686798e+01
  2122.000   6.56542088e+01
  2122.500   6.55400864e+01
  2123.000   6.54263111e+01
  2123.500   6.53128814e+01
  2124.000   6.51997958e+01
  2124.500   6.50870529e+01
  2125.000   6.49746512e+01
  2125.500   6.48625892e+01
  2126.000   6.47508655e+01
  2126.500   6.46394787e+01
  2127.000   6.45284273e+01
  2127.500   6.44177099e+01
  2128.000   6.43073252e+01
  2128.500   6.41972716e+01
  2129.000   6.40875478e+01
  2129.500   6.39781524e+01
  2130.000   6.38690840e+01
  2130.500   6.37603413e+01
  2131.000   6.36519229e+01
  2131.500   6.35438273e+01
  2132.000   6.34360534e+01
  2132.500   6.33285996e+01
  2133.000   6.32214648e+01
  2133.500   6.31146474e+01
  2134.000   6.30081463e+01
  2134.500   6.29019602e+01
  2135.000   6.27960876e+01
  2135.500   6.26905273e+01
  2136.000   6.25852780e+01
  2136.500   6.24803384e+01
  2137.000   6.23757072e+01
  2137.500   6.22713832e+01
  2138.000   6.21673651e+01
  2138.500   6.20636515e+01
  2139.000   6.19602414e+01
  2139.500   6.18571334e+01
  2140.000   6.17543262e+01
  2140.500   6.16518187e+01
  2141.000   6.15496095e+01
  2141.500   6.14476976e+01
  2142.000   6.13460817e+01
  2142.500   6.12447605e+01
  2143.000   6.11437328e+01
  2143.500   6.10429975e+01
  2144.000   6.09425534e+01
  2144.500   6.08423993e+01
  2145.000   6.07425340e+01
  2145.500   6.06429563e+01
  2146.000   6.05436651e+01
  2146.500   6.04446592e+01
  2147.000   6.03459375e+01
  2147.500   6.02474987e+01
  2148.000   6.01493419e+01
  2148.500   6.00514657e+01
  2149.000   5.99538692e+01
  2149.500   5.98565511e+01
  2150.000   5.97595104e+01
  2150.500   5.96627460e+01
  2151.000   5.95662567e+01
  2151.500   5.94700414e+01
  2152.000   5.93740991e+01
  2152.500   5.92784286e+01
  2153.000   5.91830289e+01
  2153.500   5.90878989e+01
  2154.000   5.89930375e+01
  2154.500   5.88984437e+01
  2155.000   5.88041163e+01
  2155.500   5.87100544e+01
  2156.000   5.86162568e+01
  2156.500   5.85227226e+01
  2157.000   5.84294507e+01
  2157.500   5.83364401e+01
  2158.000   5.82436897e+01
  2158.500   5.81511984e+01
  2159.000   5.80589654e+01
  2159.500   5.79669896e+01
  2160.000   5.78752699e+01
  2160.500   5.77838053e+01
  2161.000   5.76925949e+01
  2161.500   5.76016377e+01
  2162.000   5.75109327e+01
  2162.500   5.74204788e+01
  2163.000   5.73302752e+01
  2163.500   5.72403208e+01
  2164.000   5.71506147e+01
  2164.500   5.70611559e+01
  2165.000   5.69719434e+01
  2165.500   5.68829763e+01
  2166.000   5.67942537e+01
  2166.500   5.67057745e+01
  2167.000   5.66175379e+01
  2167.500   5.65295430e+01
  2168.000   5.64417887e+01
  2168.500   5.63542741e+01
  2169.000   5.62669985e+01
  2169.500   5.61799607e+01
  2170.000   5.60931599e+01
  2170.500   5.60065953e+01
  2171.000   5.59202658e+01
  2171.500   5.58341707e+01
  2172.000   5.57483089e+01
  2172.500   5.56626797e+01
  2173.000   5.55772821e+01
  2173.500   5.54921152e+01
  2174.000   5.54071782e+01
  2174.500   5.53224702e+01
  2175.000   5.52379903e+01
  2175.500   5.51537377e+01
  2176.000   5.50697115e+01
  2176.500   5.49859108e+01
  2177.000   5.49023348e+01
  2177.500   5.48189827e+01
  2178.000   5.47358535e+01
  2178.500   5.46529465e+01
  2179.000   5.45702609e+01
  2179.500   5.44877957e+01
  2180.000   5.44055502e+01
  2180.500   5.43235235e+01
  2181.000   5.42417149e+01
  2181.500   5.41601235e+01
  2182.000   5.40787484e+01
  2182.500   5.39975890e+01
  2183.000   5.39166443e+01
  2183.500   5.38359136e+01
  2184.000   5.37553962e+01
  2184.500   5.36750911e+01
  2185.000   5.35949976e+01
  2185.500   5.35151149e+01
  2186.000   5.34354423e+01
  2186.500   5.33559789e+01
  2187.000   5.32767241e+01
  2187.500   5.31976769e+01
  2188.000   5.31188367e+01
  2188.500   5.30402027e+01
  2189.000   5.29617741e+01
  2189.500   5.28835503e+01
  2190.000   5.28055303e+01
  2190.500   5.27277135e+01
  2191.000   5.26500992e+01
  2191.500   5.25726865e+01
  2192.000   5.24954748e+01
  2192.500   5.24184633e+01
  2193.000   5.23416513e+01
  2193.500   5.22650381e+01
  2194.000   5.21886229e+01
  2194.500   5.21124050e+01
  2195.000   5.20363838e+01
  2195.500   5.19605584e+01
  2196.000   5.18849282e+01
  2196.500   5.18094925e+01
  2197.000   5.17342505e+01
  2197.500   5.16592016e+01
  2198.000   5.15843451e+01
  2198.500   5.15096803e+01
  2199.000   5.14352064e+01
  2199.500   5.13609229e+01
  2200.000   5.12868289e+01
  2200.500   5.12129239e+01
  2201.000   5.11392071e+01
  2201.500   5.10656780e+01
  2202.000   5.09923357e+01
  2202.500   5.09191797e+01
  2203.000   5.08462092e+01
  2203.500   5.07734237e+01
  2204.000   5.07008224e+01
  2204.500   5.06284047e+01
  2205.000   5.05561700e+01
  2205.500   5.04841176e+01
  2206.000   5.04122468e+01
  2206.500   5.03405570e+01
  2207.000   5.02690475e+01
  2207.500   5.01977178e+01
  2208.000   5.01265672e+01
  2208.500   5.00555950e+01
  2209.000   4.99848007e+01
  2209.500   4.99141836e+01
  2210.000   4.98437430e+01
  2210.500   4.97734784e+01
  2211.000   4.97033891e+01
  2211.500   4.96334746e+01
  2212.000   4.95637341e+01
  2212.500   4.94941672e+01
  2213.000   4.94247731e+01
  2213.500   4.93555513e+01
  2214.000   4.92865012e+01
  2214.500   4.92176222e+01
  2215.000   4.91489137e+01
  2215.500   4.90803751e+01
  2216.000   4.90120058e+01
  2216.500   4.89438052e+01
  2217.000   4.88757727e+01
  2217.500   4.88079078e+01
  2218.000   4.87402098e+01
  2218.500   4.86726783e+01
  2219.000   4.86053125e+01
  2219.500   4.85381120e+01
  2220.000   4.84710762e+01
  2220.500   4.84042045e+01
  2221.000   4.83374963e+01
  2221.500   4.82709511e+01
  2222.000   4.82045683e+01
  2222.500   4.81383474e+01
  2223.000   4.80722877e+01
  2223.500   4.80063889e+01
  2224.000   4.79406502e+01
  2224.500   4.78750712e+01
  2225.000   4.78096513e+01
  2225.500   4.77443899e+01
  2226.000   4.76792866e+01
  2226.500   4.76143408e+01
  2227.000   4.75495519e+01
  2227.500   4.74849195e+01
  2228.000   4.74204429e+01
  2228.500   4.73561217e+01
  2229.000   4.72919553e+01
  2229.500   4.72279433e+01
  2230.000   4.71640850e+01
  2230.500   4.71003800e+01
  2231.000   4.70368277e+01
  2231.500   4.69734277e+01
  2232.000   4.69101794e+01
  2232.500   4.68470823e+01
  2233.000   4.67841360e+01
  2233.500   4.67213398e+01
  2234.000   4.66586933e+01
  2234.500   4.65961960e+01
  2235.000   4.65338474e+01
  2235.500   4.64716470e+01
  2236.000   4.64095943e+01
  2236.500   4.63476888e+01
  2237.000   4.62859301e+01
  2237.500   4.62243175e+01
  2238.000   4.61628507e+01
  2238.500   4.61015292e+01
  2239.000   4.60403525e+01
  2239.500   4.59793200e+01
  2240.000   4.59184313e+01
  2240.500   4.58576860e+01
  2241.000   4.57970836e+01
  2241.500   4.57366236e+01
  2242.000   4.56763054e+01
  2242.500   4.56161288e+01
  2243.000   4.55560931e+01
  2243.500   4.54961980e+01
  2244.000   4.54364429e+01
  2244.500   4.53768274e+01
  2245.000   4.53173511e+01
  2245.500   4.52580134e+01
  2246.000   4.51988140e+01
  2246.500   4.51397524e+01
  2247.000   4.50808281e+01
  2247.500   4.50220407e+01
  2248.000   4.49633897e+01
  2248.500   4.49048748e+01
  2249.000   4.48464953e+01
  2249.500   4.47882510e+01
  2250.000   4.47301414e+01
  2250.500   4.46721659e+01
  2251.000   4.46143243e+01
  2251.500   4.45566160e+01
  2252.000   4.44990407e+01
  2252.500   4.44415979e+01
  2253.000   4.43842871e+01
  2253.500   4.43271080e+01
  2254.000   4.42700601e+01
  2254.500   4.42131430e+01
  2255.000   4.41563563e+01
  2255.500   4.40996996e+01
  2256.000   4.40431723e+01
  2256.500   4.39867743e+01
  2257.000   4.39305049e+01
  2257.500   4.38743638e+01
  2258.000   4.38183506e+01
  2258.500   4.37624649e+01
  2259.000   4.37067062e+01
  2259.500   4.36510742e+01
  2260.000   4.35955685e+01
  2260.500   4.35401887e+01
  2261.000   4.34849343e+01
  2261.500   4.34298049e+01
  2262.000   4.33748002e+01
  2262.500   4.33199198e+01
  2263.000   4.32651633e+01
  2263.500   4.32105302e+01
  2264.000   4.31560202e+01
  2264.500   4.31016330e+01
  2265.000   4.30473680e+01
  2265.500   4.29932250e+01
  2266.000   4.29392035e+01
  2266.500   4.28853032e+01
  2267.000   4.28315236e+01
  2267.500   4.27778645e+01
  2268.000   4.27243253e+01
  2268.500   4.26709058e+01
  2269.000   4.26176056e+01
  2269.500   4.25644243e+01
  2270.000   4.25113615e+01
  2270.500   4.24584168e+01
  2271.000   4.24055900e+01
  2271.500   4.23528805e+01
  2272.000   4.23002881e+01
  2272.500   4.22478124e+01
  2273.000   4.21954530e+01
  2273.500   4.21432096e+01
  2274.000   4.20910817e+01
  2274.500   4.20390691e+01
  2275.000   4.19871714e+01
  2275.500   4.19353882e+01
  2276.000   4.18837192e+01
  2276.500   4.18321641e+01
  2277.000   4.17807223e+01
  2277.500   4.17293937e+01
  2278.000   4.16781779e+01
  2278.500   4.16270745e+01
  2279.000   4.15760832e+01
  2279.500   4.15252036e+01
  2280.000   4.14744354e+01
  2280.500   4.14237782e+01
  2281.000   4.13732318e+01
  2281.500   4.13227957e+01
  2282.000   4.12724697e+01
  2282.500   4.12222533e+01
  2283.000   4.11721463e+01
  2283.500   4.11221483e+01
  2284.000   4.10722591e+01
  2284.500   4.10224781e+01
  2285.000   4.09728053e+01
  2285.500   4.09232401e+01
  2286.000   4.08737823e+01
  2286.500   4.08244315e+01
  2287.000   4.07751875e+01
  2287.500   4.07260499e+01
  2288.000   4.06770183e+01
  2288.500   4.06280925e+01
  2289.000   4.05792722e+01
  2289.500   4.05305570e+01
  2290.000   4.04819466e+01
  2290.500   4.04334406e+01
  2291.000   4.03850389e+01
  2291.500   4.03367410e+01
  2292.000   4.02885466e+01
  2292.500   4.02404555e+01
  2293.000   4.01924673e+01
  2293.500   4.01445818e+01
  2294.000   4.00967985e+01
  2294.500   4.00491173e+01
  2295.000   4.00015378e+01
  2295.500   3.99540596e+01
  2296.000   3.99066826e+01
  2296.500   3.98594063e+01
  2297.000   3.98122306e+01
  2297.500   3.97651550e+01
  2298.000   3.97181794e+01
  2298.500   3.96713033e+01
  2299.000   3.96245266e+01
  2299.500   3.95778488e+01
  2300.000   3.95312698e+01
  2300.500   3.94847892e+01
  2301.000   3.94384067e+01
  2301.500   3.93921221e+01
  2302.000   3.93459351e+01
  2302.500   3.92998453e+01
  2303.000   3.92538525e+01
  2303.500   3.92079564e+01
  2304.000   3.91621567e+01
  2304.500   3.91164531e+01
  2305.000   3.90708454e+01
  2305.500   3.90253332e+01
  2306.000   3.89799163e+01
  2306.500   3.89345945e+01
  2307.000   3.88893674e+01
  2307.500   3.88442347e+01
  2308.000   3.87991962e+01
  2308.500   3.87542516e+01
  2309.000   3.87094006e+01
  2309.500   3.86646430e+01
  2310.000   3.86199784e+01
  2310.500   3.85754067e+01
  2311.000   3.85309276e+01
  2311.500   3.84865407e+01
  2312.000   3.84422458e+01
  2312.500   3.83980426e+01
  2313.000   3.83539309e+01
  2313.500   3.83099105e+01
  2314.000   3.82659810e+01
  2314.500   3.82221422e+01
  2315.000   3.81783938e+01
  2315.500   3.81347355e+01
  2316.000   3.80911672e+01
  2316.500   3.80476885e+01
  2317.000   3.80042992e+01
  2317.500   3.79609990e+01
  2318.000   3.79177878e+01
  2318.500   3.78746651e+01
  2319.000   3.78316308e+01
  2319.500   3.77886846e+01
  2320.000   3.77458263e+01
  2320.500   3.77030556e+01
  2321.000   3.76603722e+01
  2321.500   3.76177760e+01
  2322.000   3.75752666e+01
  2322.500   3.75328439e+01
  2323.000   3.74905075e+01
  2323.500   3.74482573e+01
  2324.000   3.74060929e+01
  2324.500   3.73640142e+01
  2325.000   3.73220208e+01
  2325.500   3.72801126e+01
  2326.000   3.72382894e+01
  2326.500   3.71965508e+01
  2327.000   3.71548966e+01
  2327.500   3.71133267e+01
  2328.000   3.70718407e+01
  2328.500   3.70304384e+01
  2329.000   3.69891196e+01
  2329.500   3.69478841e+01
  2330.000   3.69067315e+01
  2330.500   3.68656618e+01
  2331.000   3.68246746e+01
  2331.500   3.67837698e+01
  2332.000   3.67429470e+01
  2332.500   3.67022061e+01
  2333.000   3.66615468e+01
  2333.500   3.66209690e+01
  2334.000   3.65804723e+01
  2334.500   3.65400565e+01
  2335.000   3.64997215e+01
  2335.500   3.64594670e+01
  2336.000   3.64192928e+01
  2336.500   3.63791987e+01
  2337.000   3.63391843e+01
  2337.500   3.62992496e+01
  2338.000   3.62593943e+01
  2338.500   3.62196181e+01
  2339.000   3.61799209e+01
  2339.500   3.61403025e+01
  2340.000   3.61007625e+01
  2340.500   3.60613009e+01
  2341.000   3.60219173e+01
  2341.500   3.59826116e+01
  2342.000   3.59433836e+01
  2342.500   3.59042330e+01
  2343.000   3.58651596e+01
  2343.500   3.58261633e+01
  2344.000   3.57872438e+01
  2344.500   3.57484008e+01
  2345.000   3.57096343e+01
  2345.500   3.56709439e+01
  2346.000   3.56323295e+01
  2346.500   3.55937909e+01
  2347.000   3.55553278e+01
  2347.500   3.55169401e+01
  2348.000   3.54786275e+01
  2348.500   3.54403899e+01
  2349.000   3.54022270e+01
  2349.500   3.53641386e+01
  2350.000   3.53261246e+01
  2350.500   3.52881847e+01
  2351.000   3.52503188e+01
  2351.500   3.52125265e+01
  2352.000   3.51748078e+01
  2352.500   3.51371624e+01
  2353.000   3.50995902e+01
  2353.500   3.50620909e+01
  2354.000   3.50246643e+01
  2354.500   3.49873103e+01
  2355.000   3.49500287e+01
  2355.500   3.49128192e+01
  2356.000   3.48756816e+01
  2356.500   3.48386158e+01
  2357.000   3.48016216e+01
  2357.500   3.47646988e+01
  2358.000   3.47278472e+01
  2358.500   3.46910666e+01
  2359.000   3.46543568e+01
  2359.500   3.46177176e+01
  2360.000   3.45811488e+01
  2360.500   3.45446503e+01
  2361.000   3.45082219e+01
  2361.500   3.44718633e+01
  2362.000   3.44355744e+01
  2362.500   3.43993551e+01
  2363.000   3.43632050e+01
  2363.500   3.43271241e+01
  2364.000   3.42911122e+01
  2364.500   3.42551690e+01
  2365.000   3.42192944e+01
  2365.500   3.41834882e+01
  2366.000   3.41477502e+01
  2366.500   3.41120803e+01
  2367.000   3.40764782e+01
  2367.500   3.40409439e+01
  2368.000   3.40054770e+01
  2368.500   3.39700775e+01
  2369.000   3.39347451e+01
  2369.500   3.38994797e+01
  2370.000   3.38642811e+01
  2370.500   3.38291492e+01
  2371.000   3.37940837e+01
  2371.500   3.37590845e+01
  2372.000   3.37241514e+01
  2372.500   3.36892842e+01
  2373.000   3.36544828e+01
  2373.500   3.36197470e+01
  2374.000   3.35850766e+01
  2374.500   3.35504714e+01
  2375.000   3.35159314e+01
  2375.500   3.34814562e+01
  2376.000   3.34470458e+01
  2376.500   3.34127000e+01
  2377.000   3.33784185e+01
  2377.500   3.33442013e+01
  2378.000   3.33100482e+01
  2378.500   3.32759590e+01
  2379.000   3.32419336e+01
  2379.500   3.32079717e+01
  2380.000   3.31740732e+01
  2380.500   3.31402380e+01
  2381.000   3.31064659e+01
  2381.500   3.30727567e+01
  2382.000   3.30391103e+01
  2382.500   3.30055265e+01
  2383.000   3.29720051e+01
  2383.500   3.29385460e+01
  2384.000   3.29051491e+01
  2384.500   3.28718141e+01
  2385.000   3.28385409e+01
  2385.500   3.28053293e+01
  2386.000   3.27721793e+01
  2386.500   3.27390906e+01
  2387.000   3.27060630e+01
  2387.500   3.26730965e+01
  2388.000   3.26401909e+01
  2388.500   3.26073460e+01
  2389.000   3.25745616e+01
  2389.500   3.25418376e+01
  2390.000   3.25091739e+01
  2390.500   3.24765703e+01
  2391.000   3.24440266e+01
  2391.500   3.24115428e+01
  2392.000   3.23791185e+01
  2392.500   3.23467538e+01
  2393.000   3.23144484e+01
  2393.500   3.22822022e+01
  2394.000   3.22500151e+01
  2394.500   3.22178869e+01
  2395.000   3.21858174e+01
  2395.500   3.21538065e+01
  2396.000   3.21218540e+01
  2396.500   3.20899599e+01
  2397.000   3.20581239e+01
  2397.500   3.20263460e+01
  2398.000   3.19946259e+01
  2398.500   3.19629635e+01
  2399.000   3.19313587e+01
  2399.500   3.18998114e+01
  2400.000   3.18683214e+01
  2400.500   3.18368885e+01
  2401.000   3.18055126e+01
  2401.500   3.17741936e+01
  2402.000   3.17429313e+01
  2402.500   3.17117256e+01
  2403.000   3.16805763e+01
  2403.500   3.16494834e+01
  2404.000   3.16184466e+01
  2404.500   3.15874659e+01
  2405.000   3.15565410e+01
  2405.500   3.15256719e+01
  2406.000   3.14948584e+01
  2406.500   3.14641004e+01
  2407.000   3.14333977e+01
  2407.500   3.14027502e+01
  2408.000   3.13721578e+01
  2408.500   3.13416203e+01
  2409.000   3.13111377e+01
  2409.500   3.12807097e+01
  2410.000   3.12503362e+01
  2410.500   3.12200171e+01
  2411.000   3.11897523e+01
  2411.500   3.11595416e+01
  2412.000   3.11293849e+01
  2412.500   3.10992820e+01
  2413.000   3.10692329e+01
  2413.500   3.10392374e+01
  2414.000   3.10092954e+01
  2414.500   3.09794067e+01
  2415.000   3.09495713e+01
  2415.500   3.09197889e+01
  2416.000   3.08900595e+01
  2416.500   3.08603829e+01
  2417.000   3.08307590e+01
  2417.500   3.08011876e+01
  2418.000   3.07716687e+01
  2418.500   3.07422022e+01
  2419.000   3.07127878e+01
  2419.500   3.06834255e+01
  2420.000   3.06541151e+01
  2420.500   3.06248565e+01
  2421.000   3.05956497e+01
  2421.500   3.05664944e+01
  2422.000   3.05373905e+01
  2422.500   3.05083380e+01
  2423.000   3.04793366e+01
  2423.500   3.04503863e+01
  2424.000   3.04214870e+01
  2424.500   3.03926385e+01
  2425.000   3.03638407e+01
  2425.500   3.03350935e+01
  2426.000   3.03063968e+01
  2426.500   3.02777504e+01
  2427.000   3.02491542e+01
  2427.500   3.02206081e+01
  2428.000   3.01921120e+01
  2428.500   3.01636658e+01
  2429.000   3.01352694e+01
  2429.500   3.01069225e+01
  2430.000   3.00786252e+01
  2430.500   3.00503773e+01
  2431.000   3.00221786e+01
  2431.500   2.99940292e+01
  2432.000   2.99659287e+01
  2432.500   2.99378772e+01
  2433.000   2.99098745e+01
  2433.500   2.98819205e+01
  2434.000   2.98540151e+01
  2434.500   2.98261582e+01
  2435.000   2.97983496e+01
  2435.500   2.97705893e+01
  2436.000   2.97428771e+01
  2436.500   2.97152129e+01
  2437.000   2.96875966e+01
  2437.500   2.96600281e+01
  2438.000   2.96325073e+01
  2438.500   2.96050341e+01
  2439.000   2.95776083e+01
  2439.500   2.95502299e+01
  2440.000   2.95228987e+01
  2440.500   2.94956146e+01
  2441.000   2.94683776e+01
  2441.500   2.94411874e+01
  2442.000   2.94140441e+01
  2442.500   2.93869475e+01
  2443.000   2.93598974e+01
  2443.500   2.93328938e+01
  2444.000   2.93059366e+01
  2444.500   2.92790257e+01
  2445.000   2.92521609e+01
  2445.500   2.92253421e+01
  2446.000   2.91985693e+01
  2446.500   2.91718423e+01
  2447.000   2.91451611e+01
  2447.500   2.91185255e+01
  2448.000   2.90919354e+01
  2448.500   2.90653907e+01
  2449.000   2.90388913e+01
  2449.500   2.90124371e+01
  2450.000   2.89860281e+01
  2450.500   2.89596640e+01
  2451.000   2.89333448e+01
  2451.500   2.89070705e+01
  2452.000   2.88808408e+01
  2452.500   2.88546557e+01
  2453.000   2.88285151e+01
  2453.500   2.88024189e+01
  2454.000   2.87763670e+01
  2454.500   2.87503592e+01
  2455.000   2.87243956e+01
  2455.500   2.86984759e+01
  2456.000   2.86726001e+01
  2456.500   2.86467681e+01
  2457.000   2.86209798e+01
  2457.500   2.85952351e+01
  2458.000   2.85695339e+01
  2458.500   2.85438761e+01
  2459.000   2.85182615e+01
  2459.500   2.84926902e+01
  2460.000   2.84671619e+01
  2460.500   2.84416767e+01
  2461.000   2.84162344e+01
  2461.500   2.83908349e+01
  2462.000   2.83654780e+01
  2462.500   2.83401638e+01
  2463.000   2.83148922e+01
  2463.500   2.82896629e+01
  2464.000   2.82644760e+01
  2464.500   2.82393314e+01
  2465.000   2.82142288e+01
  2465.500   2.81891684e+01
  2466.000   2.81641498e+01
  2466.500   2.81391732e+01
  2467.000   2.81142383e+01
  2467.500   2.80893451e+01
  2468.000   2.80644935e+01
  2468.500   2.80396833e+01
  2469.000   2.80149146e+01
  2469.500   2.79901872e+01
  2470.000   2.79655010e+01
  2470.500   2.79408559e+01
  2471.000   2.79162518e+01
  2471.500   2.78916887e+01
  2472.000   2.78671665e+01
  2472.500   2.78426850e+01
  2473.000   2.78182442e+01
  2473.500   2.77938440e+01
  2474.000   2.77694842e+01
  2474.500   2.77451649e+01
  2475.000   2.77208859e+01
  2475.500   2.76966472e+01
  2476.000   2.76724485e+01
  2476.500   2.76482900e+01
  2477.000   2.76241714e+01
  2477.500   2.76000926e+01
  2478.000   2.75760537e+01
  2478.500   2.75520545e+01
  2479.000   2.75280949e+01
  2479.500   2.75041748e+01
  2480.000   2.74802942e+01
  2480.500   2.74564530e+01
  2481.000   2.74326510e+01
  2481.500   2.74088882e+01
  2482.000   2.73851645e+01
  2482.500   2.73614798e+01
  2483.000   2.73378341e+01
  2483.500   2.73142273e+01
  2484.000   2.72906592e+01
  2484.500   2.72671298e+01
  2485.000   2.72436390e+01
  2485.500   2.72201867e+01
  2486.000   2.71967728e+01
  2486.500   2.71733973e+01
  2487.000   2.71500601e+01
  2487.500   2.71267611e+01
  2488.000   2.71035002e+01
  2488.500   2.70802773e+01
  2489.000   2.70570924e+01
  2489.500   2.70339453e+01
  2490.000   2.70108360e+01
  2490.500   2.69877644e+01
  2491.000   2.69647305e+01
  2491.500   2.69417340e+01
  2492.000   2.69187751e+01
  2492.500   2.68958535e+01
  2493.000   2.68729692e+01
  2493.500   2.68501222e+01
  2494.000   2.68273123e+01
  2494.500   2.68045395e+01
  2495.000   2.67818037e+01
  2495.500   2.67591048e+01
  2496.000   2.67364427e+01
  2496.500   2.67138173e+01
  2497.000   2.66912287e+01
  2497.500   2.66686767e+01
  2498.000   2.66461611e+01
  2498.500   2.66236821e+01
  2499.000   2.66012394e+01
  2499.500   2.65788330e+01
  2500.000   2.65564628e+01
  2500.500   2.65341287e+01
  2501.000   2.65118308e+01
  2501.500   2.64895688e+01
  2502.000   2.64673428e+01
  2502.500   2.64451525e+01
  2503.000   2.64229981e+01
  2503.500   2.64008794e+01
  2504.000   2.63787962e+01
  2504.500   2.63567486e+01
  2505.000   2.63347365e+01
  2505.500   2.63127598e+01
  2506.000   2.62908185e+01
  2506.500   2.62689123e+01
  2507.000   2.62470414e+01
  2507.500   2.62252055e+01
  2508.000   2.62034047e+01
  2508.500   2.61816389e+01
  2509.000   2.61599080e+01
  2509.500   2.61382118e+01
  2510.000   2.61165504e+01
  2510.500   2.60949237e+01
  2511.000   2.60733316e+01
  2511.500   2.60517741e+01
  2512.000   2.60302510e+01
  2512.500   2.60087623e+01
  2513.000   2.59873079e+01
  2513.500   2.59658878e+01
  2514.000   2.59445018e+01
  2514.500   2.59231500e+01
  2515.000   2.59018322e+01
  2515.500   2.58805484e+01
  2516.000   2.58592985e+01
  2516.500   2.58380825e+01
  2517.000   2.58169002e+01
  2517.500   2.57957516e+01
  2518.000   2.57746366e+01
  2518.500   2.57535552e+01
  2519.000   2.57325073e+01
  2519.500   2.57114929e+01
  2520.000   2.56905118e+01
  2520.500   2.56695640e+01
  2521.000   2.56486494e+01
  2521.500   2.56277680e+01
  2522.000   2.56069197e+01
  2522.500   2.55861044e+01
  2523.000   2.55653221e+01
  2523.500   2.55445726e+01
  2524.000   2.55238560e+01
  2524.500   2.55031722e+01
  2525.000   2.54825211e+01
  2525.500   2.54619026e+01
  2526.000   2.54413167e+01
  2526.500   2.54207633e+01
  2527.000   2.54002423e+01
  2527.500   2.53797537e+01
  2528.000   2.53592974e+01
  2528.500   2.53388734e+01
  2529.000   2.53184816e+01
  2529.500   2.52981218e+01
  2530.000   2.52777942e+01
  2530.500   2.52574985e+01
  2531.000   2.52372348e+01
  2531.500   2.52170029e+01
  2532.000   2.51968029e+01
  2532.500   2.51766346e+01
  2533.000   2.51564979e+01
  2533.500   2.51363929e+01
  2534.000   2.51163195e+01
  2534.500   2.50962776e+01
  2535.000   2.50762671e+01
  2535.500   2.50562879e+01
  2536.000   2.50363401e+01
  2536.500   2.50164235e+01
  2537.000   2.49965382e+01
  2537.500   2.49766839e+01
  2538.000   2.49568608e+01
  2538.500   2.49370686e+01
  2539.000   2.49173074e+01
  2539.500   2.48975771e+01
  2540.000   2.48778776e+01
  2540.500   2.48582089e+01
  2541.000   2.48385709e+01
  2541.500   2.48189636e+01
  2542.000   2.47993868e+01
  2542.500   2.47798406e+01
  2543.000   2.47603249e+01
  2543.500   2.47408396e+01
  2544.000   2.47213846e+01
  2544.500   2.47019600e+01
  2545.000   2.46825656e+01
  2545.500   2.46632014e+01
  2546.000   2.46438673e+01
  2546.500   2.46245633e+01
  2547.000   2.46052893e+01
  2547.500   2.45860453e+01
  2548.000   2.45668312e+01
  2548.500   2.45476469e+01
  2549.000   2.45284924e+01
  2549.500   2.45093677e+01
  2550.000   2.44902726e+01
  2550.500   2.44712071e+01
  2551.000   2.44521713e+01
  2551.500   2.44331649e+01
  2552.000   2.44141880e+01
  2552.500   2.43952404e+01
  2553.000   2.43763223e+01
  2553.500   2.43574334e+01
  2554.000   2.43385737e+01
  2554.500   2.43197433e+01
  2555.000   2.43009419e+01
  2555.500   2.42821696e+01
  2556.000   2.42634264e+01
  2556.500   2.42447121e+01
  2557.000   2.42260267e+01
  2557.500   2.42073702e+01
  2558.000   2.41887425e+01
  2558.500   2.41701435e+01
  2559.000   2.41515732e+01
  2559.500   2.41330316e+01
  2560.000   2.41145186e+01
  2560.500   2.40960341e+01
  2561.000   2.40775781e+01
  2561.500   2.40591505e+01
  2562.000   2.40407513e+01
  2562.500   2.40223804e+01
  2563.000   2.40040379e+01
  2563.500   2.39857235e+01
  2564.000   2.39674373e+01
  2564.500   2.39491793e+01
  2565.000   2.39309493e+01
  2565.500   2.39127473e+01
  2566.000   2.38945733e+01
  2566.500   2.38764272e+01
  2567.000   2.38583090e+01
  2567.500   2.38402186e+01
  2568.000   2.38221560e+01
  2568.500   2.38041211e+01
  2569.000   2.37861139e+01
  2569.500   2.37681343e+01
  2570.000   2.37501823e+01
  2570.500   2.37322578e+01
  2571.000   2.37143607e+01
  2571.500   2.36964911e+01
  2572.000   2.36786488e+01
  2572.500   2.36608339e+01
  2573.000   2.36430463e+01
  2573.500   2.36252859e+01
  2574.000   2.36075526e+01
  2574.500   2.35898465e+01
  2575.000   2.35721675e+01
  2575.500   2.35545155e+01
  2576.000   2.35368905e+01
  2576.500   2.35192924e+01
  2577.000   2.35017212e+01
  2577.500   2.34841769e+01
  2578.000   2.34666594e+01
  2578.500   2.34491686e+01
  2579.000   2.34317045e+01
  2579.500   2.34142671e+01
  2580.000   2.33968563e+01
  2580.500   2.33794720e+01
  2581.000   2.33621143e+01
  2581.500   2.33447830e+01
  2582.000   2.33274782e+01
  2582.500   2.33101997e+01
  2583.000   2.32929476e+01
  2583.500   2.32757218e+01
  2584.000   2.32585222e+01
  2584.500   2.32413488e+01
  2585.000   2.32242016e+01
  2585.500   2.32070804e+01
  2586.000   2.31899854e+01
  2586.500   2.31729163e+01
  2587.000   2.31558732e+01
  2587.500   2.31388561e+01
  2588.000   2.31218648e+01
  2588.500   2.31048994e+01
  2589.000   2.30879598e+01
  2589.500   2.30710459e+01
  2590.000   2.30541577e+01
  2590.500   2.30372952e+01
  2591.000   2.30204583e+01
  2591.500   2.30036470e+01
  2592.000   2.29868613e+01
  2592.500   2.29701010e+01
  2593.000   2.29533662e+01
  2593.500   2.29366567e+01
  2594.000   2.29199727e+01
  2594.500   2.29033140e+01
  2595.000   2.28866805e+01
  2595.500   2.28700723e+01
  2596.000   2.28534893e+01
  2596.500   2.28369314e+01
  2597.000   2.28203987e+01
  2597.500   2.28038910e+01
  2598.000   2.27874083e+01
  2598.500   2.27709506e+01
  2599.000   2.27545179e+01
  2599.500   2.27381101e+01
  2600.000   2.27217271e+01
  2600.500   2.27053690e+01
  2601.000   2.26890357e+01
  2601.500   2.26727270e+01
  2602.000   2.26564431e+01
  2602.500   2.26401839e+01
  2603.000   2.26239493e+01
  2603.500   2.26077392e+01
  2604.000   2.25915537e+01
  2604.500   2.25753927e+01
  2605.000   2.25592562e+01
  2605.500   2.25431440e+01
  2606.000   2.25270563e+01
  2606.500   2.25109929e+01
  2607.000   2.24949538e+01
  2607.500   2.24789390e+01
  2608.000   2.24629484e+01
  2608.500   2.24469819e+01
  2609.000   2.24310397e+01
  2609.500   2.24151215e+01
  2610.000   2.23992274e+01
  2610.500   2.23833574e+01
  2611.000   2.23675113e+01
  2611.500   2.23516892e+01
  2612.000   2.23358911e+01
  2612.500   2.23201168e+01
  2613.000   2.23043663e+01
  2613.500   2.22886397e+01
  2614.000   2.22729368e+01
  2614.500   2.22572577e+01
  2615.000   2.22416022e+01
  2615.500   2.22259704e+01
  2616.000   2.22103623e+01
  2616.500   2.21947777e+01
  2617.000   2.21792166e+01
  2617.500   2.21636791e+01
  2618.000   2.21481651e+01
  2618.500   2.21326745e+01
  2619.000   2.21172073e+01
  2619.500   2.21017634e+01
  2620.000   2.20863429e+01
  2620.500   2.20709457e+01
  2621.000   2.20555718e+01
  2621.500   2.20402211e+01
  2622.000   2.20248935e+01
  2622.500   2.20095892e+01
  2623.000   2.19943079e+01
  2623.500   2.19790497e+01
  2624.000   2.19638146e+01
  2624.500   2.19486025e+01
  2625.000   2.19334134e+01
  2625.500   2.19182472e+01
  2626.000   2.19031040e+01
  2626.500   2.18879836e+01
  2627.000   2.18728860e+01
  2627.500   2.18578113e+01
  2628.000   2.18427593e+01
  2628.500   2.18277301e+01
  2629.000   2.18127236e+01
  2629.500   2.17977398e+01
  2630.000   2.17827786e+01
  2630.500   2.17678400e+01
  2631.000   2.17529240e+01
  2631.500   2.17380305e+01
  2632.000   2.17231596e+01
  2632.500   2.17083111e+01
  2633.000   2.16934851e+01
  2633.500   2.16786814e+01
  2634.000   2.16639002e+01
  2634.500   2.16491413e+01
  2635.000   2.16344047e+01
  2635.500   2.16196904e+01
  2636.000   2.16049984e+01
  2636.500   2.15903285e+01
  2637.000   2.15756809e+01
  2637.500   2.15610554e+01
  2638.000   2.15464521e+01
  2638.500   2.15318708e+01
  2639.000   2.15173116e+01
  2639.500   2.15027744e+01
  2640.000   2.14882592e+01
  2640.500   2.14737660e+01
  2641.000   2.14592948e+01
  2641.500   2.14448454e+01
  2642.000   2.14304179e+01
  2642.500   2.14160123e+01
  2643.000   2.14016285e+01
  2643.500   2.13872665e+01
  2644.000   2.13729262e+01
  2644.500   2.13586076e+01
  2645.000   2.13443108e+01
  2645.500   2.13300356e+01
  2646.000   2.13157820e+01
  2646.500   2.13015501e+01
  2647.000   2.12873398e+01
  2647.500   2.12731509e+01
  2648.000   2.12589837e+01
  2648.500   2.12448379e+01
  2649.000   2.12307135e+01
  2649.500   2.12166106e+01
  2650.000   2.12025291e+01
  2650.500   2.11884690e+01
  2651.000   2.11744302e+01
  2651.500   2.11604128e+01
  2652.000   2.11464166e+01
  2652.500   2.11324417e+01
  2653.000   2.11184881e+01
  2653.500   2.11045556e+01
  2654.000   2.10906444e+01
  2654.500   2.10767543e+01
  2655.000   2.10628853e+01
  2655.500   2.10490374e+01
  2656.000   2.10352106e+01
  2656.500   2.10214048e+01
  2657.000   2.10076200e+01
  2657.500   2.09938563e+01
  2658.000   2.09801134e+01
  2658.500   2.09663916e+01
  2659.000   2.09526906e+01
  2659.500   2.09390105e+01
  2660.000   2.09253513e+01
  2660.500   2.09117129e+01
  2661.000   2.08980953e+01
  2661.500   2.08844985e+01
  2662.000   2.08709225e+01
  2662.500   2.08573672e+01
  2663.000   2.08438325e+01
  2663.500   2.08303186e+01
  2664.000   2.08168253e+01
  2664.500   2.08033526e+01
  2665.000   2.07899006e+01
  2665.500   2.07764691e+01
  2666.000   2.07630581e+01
  2666.500   2.07496677e+01
  2667.000   2.07362978e+01
  2667.500   2.07229483e+01
  2668.000   2.07096193e+01
  2668.500   2.06963108e+01
  2669.000   2.06830226e+01
  2669.500   2.06697548e+01
  2670.000   2.06565074e+01
  2670.500   2.06432803e+01
  2671.000   2.06300735e+01
  2671.500   2.06168870e+01
  2672.000   2.06037207e+01
  2672.500   2.05905747e+01
  2673.000   2.05774489e+01
  2673.500   2.05643433e+01
  2674.000   2.05512578e+01
  2674.500   2.05381925e+01
  2675.000   2.05251474e+01
  2675.500   2.05121223e+01
  2676.000   2.04991173e+01
  2676.500   2.04861323e+01
  2677.000   2.04731674e+01
  2677.500   2.04602224e+01
  2678.000   2.04472975e+01
  2678.500   2.04343925e+01
  2679.000   2.04215075e+01
  2679.500   2.04086424e+01
  2680.000   2.03957972e+01
  2680.500   2.03829718e+01
  2681.000   2.03701663e+01
  2681.500   2.03573807e+01
  2682.000   2.03446148e+01
  2682.500   2.03318688e+01
  2683.000   2.03191425e+01
  2683.500   2.03064359e+01
  2684.000   2.02937491e+01
  2684.500   2.02810820e+01
  2685.000   2.02684346e+01
  2685.500   2.02558068e+01
  2686.000   2.02431987e+01
  2686.500   2.02306102e+01
  2687.000   2.02180413e+01
  2687.500   2.02054920e+01
  2688.000   2.01929623e+01
  2688.500   2.01804521e+01
  2689.000   2.01679614e+01
  2689.500   2.01554903e+01
  2690.000   2.01430386e+01
  2690.500   2.01306064e+01
  2691.000   2.01181936e+01
  2691.500   2.01058003e+01
  2692.000   2.00934263e+01
  2692.500   2.00810718e+01
  2693.000   2.00687366e+01
  2693.500   2.00564208e+01
  2694.000   2.00441243e+01
  2694.500   2.00318471e+01
  2695.000   2.00195892e+01
  2695.500   2.00073506e+01
  2696.000   1.99951313e+01
  2696.500   1.99829312e+01
  2697.000   1.99707503e+01
  2697.500   1.99585886e+01
  2698.000   1.99464461e+01
  2698.500   1.99343228e+01
  2699.000   1.99222187e+01
  2699.500   1.99101336e+01
  2700.000   1.98980677e+01
  2700.500   1.98860209e+01
  2701.000   1.98739932e+01
  2701.500   1.98619845e+01
  2702.000   1.98499949e+01
  2702.500   1.98380244e+01
  2703.000   1.98260728e+01
  2703.500   1.98141403e+01
  2704.000   1.98022267e+01
  2704.500   1.97903321e+01
  2705.000   1.97784564e+01
  2705.500   1.97665997e+01
  2706.000   1.97547619e+01
  2706.500   1.97429431e+01
  2707.000   1.97311431e+01
  2707.500   1.97193619e+01
  2708.000   1.97075997e+01
  2708.500   1.96958563e+01
  2709.000   1.96841317e+01
  2709.500   1.96724259e+01
  2710.000   1.96607389e+01
  2710.500   1.96490707e+01
  2711.000   1.96374213e+01
  2711.500   1.96257906e+01
  2712.000   1.96141787e+01
  2712.500   1.96025855e+01
  2713.000   1.95910110e+01
  2713.500   1.95794551e+01
  2714.000   1.95679180e+01
  2714.500   1.95563996e+01
  2715.000   1.95448998e+01
  2715.500   1.95334186e+01
  2716.000   1.95219561e+01
  2716.500   1.95105122e+01
  2717.000   1.94990869e+01
  2717.500   1.94876802e+01
  2718.000   1.94762920e+01
  2718.500   1.94649224e+01
  2719.000   1.94535714e+01
  2719.500   1.94422389e+01
  2720.000   1.94309249e+01
  2720.500   1.94196295e+01
  2721.000   1.94083525e+01
  2721.500   1.93970941e+01
  2722.000   1.93858541e+01
  2722.500   1.93746325e+01
  2723.000   1.93634295e+01
  2723.500   1.93522448e+01
  2724.000   1.93410786e+01
  2724.500   1.93299308e+01
  2725.000   1.93188015e+01
  2725.500   1.93076905e+01
  2726.000   1.92965979e+01
  2726.500   1.92855237e+01
  2727.000   1.92744678e+01
  2727.500   1.92634303e+01
  2728.000   1.92524111e+01
  2728.500   1.92414103e+01
  2729.000   1.92304277e+01
  2729.500   1.92194635e+01
  2730.000   1.92085176e+01
  2730.500   1.91975900e+01
  2731.000   1.91866807e+01
  2731.500   1.91757896e+01
  2732.000   1.91649168e+01
  2732.500   1.91540623e+01
  2733.000   1.91432259e+01
  2733.500   1.91324079e+01
  2734.000   1.91216080e+01
  2734.500   1.91108264e+01
  2735.000   1.91000630e+01
  2735.500   1.90893177e+01
  2736.000   1.90785907e+01
  2736.500   1.90678818e+01
  2737.000   1.90571912e+01
  2737.500   1.90465186e+01
  2738.000   1.90358643e+01
  2738.500   1.90252281e+01
  2739.000   1.90146100e+01
  2739.500   1.90040101e+01
  2740.000   1.89934283e+01
  2740.500   1.89828646e+01
  2741.000   1.89723190e+01
  2741.500   1.89617915e+01
  2742.000   1.89512822e+01
  2742.500   1.89407909e+01
  2743.000   1.89303177e+01
  2743.500   1.89198626e+01
  2744.000   1.89094255e+01
  2744.500   1.88990066e+01
  2745.000   1.88886056e+01
  2745.500   1.88782228e+01
  2746.000   1.88678580e+01
  2746.500   1.88575112e+01
  2747.000   1.88471825e+01
  2747.500   1.88368718e+01
  2748.000   1.88265791e+01
  2748.500   1.88163044e+01
  2749.000   1.88060478e+01
  2749.500   1.87958092e+01
  2750.000   1.87855885e+01
  2750.500   1.87753859e+01
  2751.000   1.87652013e+01
  2751.500   1.87550347e+01
  2752.000   1.87448860e+01
  2752.500   1.87347554e+01
  2753.000   1.87246427e+01
  2753.500   1.87145480e+01
  2754.000   1.87044713e+01
  2754.500   1.86944125e+01
  2755.000   1.86843717e+01
  2755.500   1.86743489e+01
  2756.000   1.86643441e+01
  2756.500   1.86543572e+01
  2757.000   1.86443882e+01
  2757.500   1.86344372e+01
  2758.000   1.86245042e+01
  2758.500   1.86145891e+01
  2759.000   1.86046919e+01
  2759.500   1.85948127e+01
  2760.000   1.85849515e+01
  2760.500   1.85751082e+01
  2761.000   1.85652828e+01
  2761.500   1.85554753e+01
  2762.000   1.85456858e+01
  2762.500   1.85359143e+01
  2763.000   1.85261606e+01
  2763.500   1.85164249e+01
  2764.000   1.85067071e+01
  2764.500   1.84970073e+01
  2765.000   1.84873254e+01
  2765.500   1.84776614e+01
  2766.000   1.84680154e+01
  2766.500   1.84583873e+01
  2767.000   1.84487771e+01
  2767.500   1.84391849e+01
  2768.000   1.84296106e+01
  2768.500   1.84200542e+01
  2769.000   1.84105158e+01
  2769.500   1.84009953e+01
  2770.000   1.83914927e+01
  2770.500   1.83820081e+01
  2771.000   1.83725414e+01
  2771.500   1.83630927e+01
  2772.000   1.83536619e+01
  2772.500   1.83442491e+01
  2773.000   1.83348542e+01
  2773.500   1.83254773e+01
  2774.000   1.83161183e+01
  2774.500   1.83067772e+01
  2775.000   1.82974542e+01
  2775.500   1.82881491e+01
  2776.000   1.82788620e+01
  2776.500   1.82695928e+01
  2777.000   1.82603416e+01
  2777.500   1.82511084e+01
  2778.000   1.82418932e+01
  2778.500   1.82326959e+01
  2779.000   1.82235167e+01
  2779.500   1.82143554e+01
  2780.000   1.82052121e+01
  2780.500   1.81960869e+01
  2781.000   1.81869796e+01
  2781.500   1.81778904e+01
  2782.000   1.81688192e+01
  2782.500   1.81597660e+01
  2783.000   1.81507309e+01
  2783.500   1.81417137e+01
  2784.000   1.81327147e+01
  2784.500   1.81237336e+01
  2785.000   1.81147707e+01
  2785.500   1.81058258e+01
  2786.000   1.80968989e+01
  2786.500   1.80879902e+01
  2787.000   1.80790995e+01
  2787.500   1.80702269e+01
  2788.000   1.80613724e+01
  2788.500   1.80525360e+01
  2789.000   1.80437178e+01
  2789.500   1.80349176e+01
  2790.000   1.80261356e+01
  2790.500   1.80173717e+01
  2791.000   1.80086260e+01
  2791.500   1.79998984e+01
  2792.000   1.79911890e+01
  2792.500   1.79824978e+01
  2793.000   1.79738248e+01
  2793.500   1.79651699e+01
  2794.000   1.79565333e+01
  2794.500   1.79479149e+01
  2795.000   1.79393146e+01
  2795.500   1.79307327e+01
  2796.000   1.79221690e+01
  2796.500   1.79136235e+01
  2797.000   1.79050963e+01
  2797.500   1.78965874e+01
  2798.000   1.78880967e+01
  2798.500   1.78796244e+01
  2799.000   1.78711704e+01
  2799.500   1.78627347e+01
  2800.000   1.78543174e+01
  2800.500   1.78459184e+01
  2801.000   1.78375378e+01
  2801.500   1.78291755e+01
  2802.000   1.78208317e+01
  2802.500   1.78125062e+01
  2803.000   1.78041992e+01
  2803.500   1.77959106e+01
  2804.000   1.77876404e+01
  2804.500   1.77793887e+01
  2805.000   1.77711555e+01
  2805.500   1.77629407e+01
  2806.000   1.77547445e+01
  2806.500   1.77465668e+01
  2807.000   1.77384076e+01
  2807.500   1.77302670e+01
  2808.000   1.77221450e+01
  2808.500   1.77140415e+01
  2809.000   1.77059566e+01
  2809.500   1.76978903e+01
  2810.000   1.76898427e+01
  2810.500   1.76818138e+01
  2811.000   1.76738034e+01
  2811.500   1.76658118e+01
  2812.000   1.76578389e+01
  2812.500   1.76498847e+01
  2813.000   1.76419492e+01
  2813.500   1.76340325e+01
  2814.000   1.76261346e+01
  2814.500   1.76182555e+01
  2815.000   1.76103952e+01
  2815.500   1.76025537e+01
  2816.000   1.75947311e+01
  2816.500   1.75869273e+01
  2817.000   1.75791425e+01
  2817.500   1.75713765e+01
  2818.000   1.75636295e+01
  2818.500   1.75559015e+01
  2819.000   1.75481924e+01
  2819.500   1.75405023e+01
  2820.000   1.75328313e+01
  2820.500   1.75251792e+01
  2821.000   1.75175463e+01
  2821.500   1.75099325e+01
  2822.000   1.75023377e+01
  2822.500   1.74947621e+01
  2823.000   1.74872057e+01
  2823.500   1.74796684e+01
  2824.000   1.74721503e+01
  2824.500   1.74646515e+01
  2825.000   1.74571719e+01
  2825.500   1.74497116e+01
  2826.000   1.74422706e+01
  2826.500   1.74348490e+01
  2827.000   1.74274467e+01
  2827.500   1.74200637e+01
  2828.000   1.74127002e+01
  2828.500   1.74053562e+01
  2829.000   1.73980315e+01
  2829.500   1.73907264e+01
  2830.000   1.73834408e+01
  2830.500   1.73761747e+01
  2831.000   1.73689282e+01
  2831.500   1.73617013e+01
  2832.000   1.73544941e+01
  2832.500   1.73473065e+01
  2833.000   1.73401385e+01
  2833.500   1.73329903e+01
  2834.000   1.73258619e+01
  2834.500   1.73187532e+01
  2835.000   1.73116643e+01
  2835.500   1.73045953e+01
  2836.000   1.72975461e+01
  2836.500   1.72905169e+01
  2837.000   1.72835076e+01
  2837.500   1.72765182e+01
  2838.000   1.72695488e+01
  2838.500   1.72625995e+01
  2839.000   1.72556702e+01
  2839.500   1.72487611e+01
  2840.000   1.72418720e+01
  2840.500   1.72350032e+01
  2841.000   1.72281545e+01
  2841.500   1.72213260e+01
  2842.000   1.72145179e+01
  2842.500   1.72077300e+01
  2843.000   1.72009625e+01
  2843.500   1.71942154e+01
  2844.000   1.71874886e+01
  2844.500   1.71807824e+01
  2845.000   1.71740966e+01
  2845.500   1.71674313e+01
  2846.000   1.71607866e+01
  2846.500   1.71541625e+01
  2847.000   1.71475591e+01
  2847.500   1.71409763e+01
  2848.000   1.71344143e+01
  2848.500   1.71278730e+01
  2849.000   1.71213525e+01
  2849.500   1.71148529e+01
  2850.000   1.71083741e+01
  2850.500   1.71019163e+01
  2851.000   1.70954794e+01
  2851.500   1.70890636e+01
  2852.000   1.70826688e+01
  2852.500   1.70762950e+01
  2853.000   1.70699425e+01
  2853.500   1.70636111e+01
  2854.000   1.70573009e+01
  2854.500   1.70510120e+01
  2855.000   1.70447445e+01
  2855.500   1.70384982e+01
  2856.000   1.70322734e+01
  2856.500   1.70260701e+01
  2857.000   1.70198882e+01
  2857.500   1.70137279e+01
  2858.000   1.70075892e+01
  2858.500   1.70014722e+01
  2859.000   1.69953768e+01
  2859.500   1.69893032e+01
  2860.000   1.69832513e+01
  2860.500   1.69772213e+01
  2861.000   1.69712132e+01
  2861.500   1.69652271e+01
  2862.000   1.69592629e+01
  2862.500   1.69533208e+01
  2863.000   1.69474008e+01
  2863.500   1.69415029e+01
  2864.000   1.69356272e+01
  2864.500   1.69297738e+01
  2865.000   1.69239427e+01
  2865.500   1.69181340e+01
  2866.000   1.69123477e+01
  2866.500   1.69065839e+01
  2867.000   1.69008426e+01
  2867.500   1.68951238e+01
  2868.000   1.68894278e+01
  2868.500   1.68837544e+01
  2869.000   1.68781038e+01
  2869.500   1.68724760e+01
  2870.000   1.68668711e+01
  2870.500   1.68612892e+01
  2871.000   1.68557302e+01
  2871.500   1.68501943e+01
  2872.000   1.68446816e+01
  2872.500   1.68391920e+01
  2873.000   1.68337256e+01
  2873.500   1.68282826e+01
  2874.000   1.68228629e+01
  2874.500   1.68174667e+01
  2875.000   1.68120940e+01
  2875.500   1.68067448e+01
  2876.000   1.68014193e+01
  2876.500   1.67961175e+01
  2877.000   1.67908394e+01
  2877.500   1.67855852e+01
  2878.000   1.67803548e+01
  2878.500   1.67751485e+01
  2879.000   1.67699661e+01
  2879.500   1.67648079e+01
  2880.000   1.67596739e+01
  2880.500   1.67545641e+01
  2881.000   1.67494786e+01
  2881.500   1.67444175e+01
  2882.000   1.67393809e+01
  2882.500   1.67343689e+01
  2883.000   1.67293814e+01
  2883.500   1.67244186e+01
  2884.000   1.67194806e+01
  2884.500   1.67145675e+01
  2885.000   1.67096792e+01
  2885.500   1.67048159e+01
  2886.000   1.66999778e+01
  2886.500   1.66951647e+01
  2887.000   1.66903769e+01
  2887.500   1.66856144e+01
  2888.000   1.66808773e+01
  2888.500   1.66761657e+01
  2889.000   1.66714796e+01
  2889.500   1.66668192e+01
  2890.000   1.66621845e+01
  2890.500   1.66575755e+01
  2891.000   1.66529925e+01
  2891.500   1.66484355e+01
  2892.000   1.66439045e+01
  2892.500   1.66393996e+01
  2893.000   1.66349210e+01
  2893.500   1.66304688e+01
  2894.000   1.66260429e+01
  2894.500   1.66216435e+01
  2895.000   1.66172708e+01
  2895.500   1.66129247e+01
  2896.000   1.66086054e+01
  2896.500   1.66043130e+01
  2897.000   1.66000476e+01
  2897.500   1.65958092e+01
  2898.000   1.65915980e+01
  2898.500   1.65874140e+01
  2899.000   1.65832574e+01
  2899.500   1.65791282e+01
  2900.000   1.65750266e+01
  2900.500   1.65709527e+01
  2901.000   1.65669065e+01
  2901.500   1.65628881e+01
  2902.000   1.65588977e+01
  2902.500   1.65549354e+01
  2903.000   1.65510012e+01
  2903.500   1.65470953e+01
  2904.000   1.65432178e+01
  2904.500   1.65393687e+01
  2905.000   1.65355482e+01
  2905.500   1.65317565e+01
  2906.000   1.65279935e+01
  2906.500   1.65242595e+01
  2907.000   1.65205545e+01
  2907.500   1.65168786e+01
  2908.000   1.65132320e+01
  2908.500   1.65096148e+01
  2909.000   1.65060270e+01
  2909.500   1.65024689e+01
  2910.000   1.64989405e+01
  2910.500   1.64954419e+01
  2911.000   1.64919733e+01
  2911.500   1.64885347e+01
  2912.000   1.64851264e+01
  2912.500   1.64817483e+01
  2913.000   1.64784008e+01
  2913.500   1.64750838e+01
  2914.000   1.64717975e+01
  2914.500   1.64685420e+01
  2915.000   1.64653175e+01
  2915.500   1.64621240e+01
  2916.000   1.64589618e+01
  2916.500   1.64558309e+01
  2917.000   1.64527315e+01
  2917.500   1.64496637e+01
  2918.000   1.64466276e+01
  2918.500   1.64436235e+01
  2919.000   1.64406513e+01
  2919.500   1.64377113e+01
  2920.000   1.64348036e+01
  2920.500   1.64319283e+01
  2921.000   1.64290857e+01
  2921.500   1.64262757e+01
  2922.000   1.64234986e+01
  2922.500   1.64207545e+01
  2923.000   1.64180436e+01
  2923.500   1.64153660e+01
  2924.000   1.64127218e+01
  2924.500   1.64101113e+01
  2925.000   1.64075345e+01
  2925.500   1.64049916e+01
  2926.000   1.64024828e+01
  2926.500   1.64000082e+01
  2927.000   1.63975680e+01
  2927.500   1.63951623e+01
  2928.000   1.63927914e+01
  2928.500   1.63904553e+01
  2929.000   1.63881542e+01
  2929.500   1.63858884e+01
  2930.000   1.63836578e+01
  2930.500   1.63814628e+01
  2931.000   1.63793035e+01
  2931.500   1.63771801e+01
  2932.000   1.63750927e+01
  2932.500   1.63730415e+01
  2933.000   1.63710267e+01
  2933.500   1.63690485e+01
  2934.000   1.63671070e+01
  2934.500   1.63652024e+01
  2935.000   1.63633349e+01
  2935.500   1.63615047e+01
  2936.000   1.63597120e+01
  2936.500   1.63579569e+01
  2937.000   1.63562397e+01
  2937.500   1.63545605e+01
  2938.000   1.63529195e+01
  2938.500   1.63513170e+01
  2939.000   1.63497531e+01
  2939.500   1.63482279e+01
  2940.000   1.63467418e+01
  2940.500   1.63452949e+01
  2941.000   1.63438874e+01
  2941.500   1.63425195e+01
  2942.000   1.63411914e+01
  2942.500   1.63399033e+01
  2943.000   1.63386555e+01
  2943.500   1.63374481e+01
  2944.000   1.63362814e+01
  2944.500   1.63351555e+01
  2945.000   1.63340708e+01
  2945.500   1.63330273e+01
  2946.000   1.63320254e+01
  2946.500   1.63310652e+01
  2947.000   1.63301470e+01
  2947.500   1.63292710e+01
  2948.000   1.63284375e+01
  2948.500   1.63276466e+01
  2949.000   1.63268986e+01
  2949.500   1.63261937e+01
  2950.000   1.63255322e+01
  2950.500   1.63249143e+01
  2951.000   1.63243403e+01
  2951.500   1.63238104e+01
  2952.000   1.63233248e+01
  2952.500   1.63228838e+01
  2953.000   1.63224876e+01
  2953.500   1.63221366e+01
  2954.000   1.63218308e+01
  2954.500   1.63215707e+01
  2955.000   1.63213565e+01
  2955.500   1.63211884e+01
  2956.000   1.63210667e+01
  2956.500   1.63209916e+01
  2957.000   1.63209635e+01
  2957.500   1.63209826e+01
  2958.000   1.63210492e+01
  2958.500   1.63211636e+01
  2959.000   1.63213260e+01
  2959.500   1.63215367e+01
  2960.000   1.63217960e+01
  2960.500   1.63221042e+01
  2961.000   1.63224617e+01
  2961.500   1.63228686e+01
  2962.000   1.63233253e+01
  2962.500   1.63238320e+01
  2963.000   1.63243892e+01
  2963.500   1.63249970e+01
  2964.000   1.63256559e+01
  2964.500   1.63263661e+01
  2965.000   1.63271278e+01
  2965.500   1.63279416e+01
  2966.000   1.63288076e+01
  2966.500   1.63297261e+01
  2967.000   1.63306976e+01
  2967.500   1.63317224e+01
  2968.000   1.63328007e+01
  2968.500   1.63339329e+01
  2969.000   1.63351194e+01
  2969.500   1.63363605e+01
  2970.000   1.63376565e+01
  2970.500   1.63390078e+01
  2971.000   1.63404147e+01
  2971.500   1.63418777e+01
  2972.000   1.63433970e+01
  2972.500   1.63449730e+01
  2973.000   1.63466061e+01
  2973.500   1.63482967e+01
  2974.000   1.63500452e+01
  2974.500   1.63518518e+01
  2975.000   1.63537170e+01
  2975.500   1.63556412e+01
  2976.000   1.63576248e+01
  2976.500   1.63596682e+01
  2977.000   1.63617717e+01
  2977.500   1.63639358e+01
  2978.000   1.63661609e+01
  2978.500   1.63684473e+01
  2979.000   1.63707955e+01
  2979.500   1.63732059e+01
  2980.000   1.63756790e+01
  2980.500   1.63782151e+01
  2981.000   1.63808148e+01
  2981.500   1.63834783e+01
  2982.000   1.63862062e+01
  2982.500   1.63889989e+01
  2983.000   1.63918569e+01
  2983.500   1.63947806e+01
  2984.000   1.63977705e+01
  2984.500   1.64008270e+01
  2985.000   1.64039505e+01
  2985.500   1.64071417e+01
  2986.000   1.64104009e+01
  2986.500   1.64137286e+01
  2987.000   1.64171254e+01
  2987.500   1.64205917e+01
  2988.000   1.64241279e+01
  2988.500   1.64277347e+01
  2989.000   1.64314125e+01
  2989.500   1.64351618e+01
  2990.000   1.64389832e+01
  2990.500   1.64428772e+01
  2991.000   1.64468442e+01
  2991.500   1.64508849e+01
  2992.000   1.64549998e+01
  2992.500   1.64591894e+01
  2993.000   1.64634543e+01
  2993.500   1.64677951e+01
  2994.000   1.64722122e+01
  2994.500   1.64767063e+01
  2995.000   1.64812780e+01
  2995.500   1.64859278e+01
  2996.000   1.64906564e+01
  2996.500   1.64954642e+01
  2997.000   1.65003520e+01
  2997.500   1.65053204e+01
  2998.000   1.65103699e+01
  2998.500   1.65155011e+01
  2999.000   1.65207148e+01
  2999.500   1.65260115e+01
