# # Created with Intravib version 0.0.9g 
# # Total reorganization energy:  1335.794805 cm^-1
     0.000   0.00000000e+00
     0.500   3.06912698e-03
     1.000   6.14585188e-03
     1.500   9.23020186e-03
     2.000   1.23222042e-02
     2.500   1.54218865e-02
     3.000   1.85292763e-02
     3.500   2.16444015e-02
     4.000   2.47672900e-02
     4.500   2.78979701e-02
     5.000   3.10364699e-02
     5.500   3.41828181e-02
     6.000   3.73370433e-02
     6.500   4.04991744e-02
     7.000   4.36692403e-02
     7.500   4.68472704e-02
     8.000   5.00332939e-02
     8.500   5.32273405e-02
     9.000   5.64294399e-02
     9.500   5.96396221e-02
    10.000   6.28579172e-02
    10.500   6.60843555e-02
    11.000   6.93189676e-02
    11.500   7.25617842e-02
    12.000   7.58128361e-02
    12.500   7.90721546e-02
    13.000   8.23397709e-02
    13.500   8.56157165e-02
    14.000   8.89000232e-02
    14.500   9.21927229e-02
    15.000   9.54938477e-02
    15.500   9.88034301e-02
    16.000   1.02121503e-01
    16.500   1.05448098e-01
    17.000   1.08783249e-01
    17.500   1.12126989e-01
    18.000   1.15479352e-01
    18.500   1.18840371e-01
    19.000   1.22210081e-01
    19.500   1.25588514e-01
    20.000   1.28975706e-01
    20.500   1.32371692e-01
    21.000   1.35776506e-01
    21.500   1.39190183e-01
    22.000   1.42612758e-01
    22.500   1.46044268e-01
    23.000   1.49484748e-01
    23.500   1.52934234e-01
    24.000   1.56392763e-01
    24.500   1.59860370e-01
    25.000   1.63337094e-01
    25.500   1.66822971e-01
    26.000   1.70318038e-01
    26.500   1.73822334e-01
    27.000   1.77335896e-01
    27.500   1.80858762e-01
    28.000   1.84390972e-01
    28.500   1.87932563e-01
    29.000   1.91483575e-01
    29.500   1.95044048e-01
    30.000   1.98614020e-01
    30.500   2.02193533e-01
    31.000   2.05782626e-01
    31.500   2.09381340e-01
    32.000   2.12989715e-01
    32.500   2.16607794e-01
    33.000   2.20235617e-01
    33.500   2.23873227e-01
    34.000   2.27520666e-01
    34.500   2.31177976e-01
    35.000   2.34845200e-01
    35.500   2.38522381e-01
    36.000   2.42209564e-01
    36.500   2.45906791e-01
    37.000   2.49614107e-01
    37.500   2.53331557e-01
    38.000   2.57059185e-01
    38.500   2.60797038e-01
    39.000   2.64545161e-01
    39.500   2.68303599e-01
    40.000   2.72072400e-01
    40.500   2.75851610e-01
    41.000   2.79641276e-01
    41.500   2.83441447e-01
    42.000   2.87252170e-01
    42.500   2.91073494e-01
    43.000   2.94905467e-01
    43.500   2.98748140e-01
    44.000   3.02601561e-01
    44.500   3.06465781e-01
    45.000   3.10340851e-01
    45.500   3.14226821e-01
    46.000   3.18123744e-01
    46.500   3.22031671e-01
    47.000   3.25950654e-01
    47.500   3.29880747e-01
    48.000   3.33822002e-01
    48.500   3.37774475e-01
    49.000   3.41738219e-01
    49.500   3.45713288e-01
    50.000   3.49699740e-01
    50.500   3.53697628e-01
    51.000   3.57707010e-01
    51.500   3.61727943e-01
    52.000   3.65760485e-01
    52.500   3.69804692e-01
    53.000   3.73860624e-01
    53.500   3.77928340e-01
    54.000   3.82007900e-01
    54.500   3.86099364e-01
    55.000   3.90202793e-01
    55.500   3.94318248e-01
    56.000   3.98445792e-01
    56.500   4.02585487e-01
    57.000   4.06737397e-01
    57.500   4.10901585e-01
    58.000   4.15078116e-01
    58.500   4.19267056e-01
    59.000   4.23468470e-01
    59.500   4.27682425e-01
    60.000   4.31908989e-01
    60.500   4.36148229e-01
    61.000   4.40400214e-01
    61.500   4.44665014e-01
    62.000   4.48942699e-01
    62.500   4.53233339e-01
    63.000   4.57537007e-01
    63.500   4.61853775e-01
    64.000   4.66183716e-01
    64.500   4.70526905e-01
    65.000   4.74883415e-01
    65.500   4.79253324e-01
    66.000   4.83636707e-01
    66.500   4.88033641e-01
    67.000   4.92444206e-01
    67.500   4.96868480e-01
    68.000   5.01306544e-01
    68.500   5.05758478e-01
    69.000   5.10224364e-01
    69.500   5.14704285e-01
    70.000   5.19198325e-01
    70.500   5.23706569e-01
    71.000   5.28229102e-01
    71.500   5.32766011e-01
    72.000   5.37317385e-01
    72.500   5.41883312e-01
    73.000   5.46463883e-01
    73.500   5.51059187e-01
    74.000   5.55669318e-01
    74.500   5.60294369e-01
    75.000   5.64934434e-01
    75.500   5.69589609e-01
    76.000   5.74259992e-01
    76.500   5.78945679e-01
    77.000   5.83646771e-01
    77.500   5.88363367e-01
    78.000   5.93095571e-01
    78.500   5.97843485e-01
    79.000   6.02607214e-01
    79.500   6.07386864e-01
    80.000   6.12182542e-01
    80.500   6.16994358e-01
    81.000   6.21822420e-01
    81.500   6.26666842e-01
    82.000   6.31527736e-01
    82.500   6.36405218e-01
    83.000   6.41299403e-01
    83.500   6.46210410e-01
    84.000   6.51138358e-01
    84.500   6.56083368e-01
    85.000   6.61045565e-01
    85.500   6.66025072e-01
    86.000   6.71022016e-01
    86.500   6.76036526e-01
    87.000   6.81068731e-01
    87.500   6.86118765e-01
    88.000   6.91186760e-01
    88.500   6.96272854e-01
    89.000   7.01377184e-01
    89.500   7.06499890e-01
    90.000   7.11641116e-01
    90.500   7.16801005e-01
    91.000   7.21979703e-01
    91.500   7.27177361e-01
    92.000   7.32394129e-01
    92.500   7.37630161e-01
    93.000   7.42885613e-01
    93.500   7.48160643e-01
    94.000   7.53455413e-01
    94.500   7.58770086e-01
    95.000   7.64104828e-01
    95.500   7.69459809e-01
    96.000   7.74835200e-01
    96.500   7.80231175e-01
    97.000   7.85647913e-01
    97.500   7.91085594e-01
    98.000   7.96544400e-01
    98.500   8.02024520e-01
    99.000   8.07526143e-01
    99.500   8.13049461e-01
   100.000   8.18594672e-01
   100.500   8.24161975e-01
   101.000   8.29751573e-01
   101.500   8.35363674e-01
   102.000   8.40998488e-01
   102.500   8.46656230e-01
   103.000   8.52337118e-01
   103.500   8.58041375e-01
   104.000   8.63769226e-01
   104.500   8.69520902e-01
   105.000   8.75296638e-01
   105.500   8.81096673e-01
   106.000   8.86921251e-01
   106.500   8.92770621e-01
   107.000   8.98645033e-01
   107.500   9.04544748e-01
   108.000   9.10470026e-01
   108.500   9.16421136e-01
   109.000   9.22398351e-01
   109.500   9.28401947e-01
   110.000   9.34432209e-01
   110.500   9.40489426e-01
   111.000   9.46573890e-01
   111.500   9.52685903e-01
   112.000   9.58825770e-01
   112.500   9.64993802e-01
   113.000   9.71190316e-01
   113.500   9.77415635e-01
   114.000   9.83670089e-01
   114.500   9.89954013e-01
   115.000   9.96267747e-01
   115.500   1.00261164e+00
   116.000   1.00898604e+00
   116.500   1.01539132e+00
   117.000   1.02182783e+00
   117.500   1.02829595e+00
   118.000   1.03479605e+00
   118.500   1.04132852e+00
   119.000   1.04789374e+00
   119.500   1.05449211e+00
   120.000   1.06112403e+00
   120.500   1.06778989e+00
   121.000   1.07449012e+00
   121.500   1.08122513e+00
   122.000   1.08799533e+00
   122.500   1.09480115e+00
   123.000   1.10164302e+00
   123.500   1.10852137e+00
   124.000   1.11543665e+00
   124.500   1.12238932e+00
   125.000   1.12937982e+00
   125.500   1.13640862e+00
   126.000   1.14347620e+00
   126.500   1.15058305e+00
   127.000   1.15772967e+00
   127.500   1.16491658e+00
   128.000   1.17214431e+00
   128.500   1.17941342e+00
   129.000   1.18672449e+00
   129.500   1.19407812e+00
   130.000   1.20147492e+00
   130.500   1.20891556e+00
   131.000   1.21640070e+00
   131.500   1.22393106e+00
   132.000   1.23150738e+00
   132.500   1.23913041e+00
   133.000   1.24680096e+00
   133.500   1.25451984e+00
   134.000   1.26228790e+00
   134.500   1.27010602e+00
   135.000   1.27797511e+00
   135.500   1.28589610e+00
   136.000   1.29386993e+00
   136.500   1.30189759e+00
   137.000   1.30998008e+00
   137.500   1.31811842e+00
   138.000   1.32631366e+00
   138.500   1.33456688e+00
   139.000   1.34287918e+00
   139.500   1.35125167e+00
   140.000   1.35968550e+00
   140.500   1.36818186e+00
   141.000   1.37674193e+00
   141.500   1.38536697e+00
   142.000   1.39405822e+00
   142.500   1.40281698e+00
   143.000   1.41164459e+00
   143.500   1.42054239e+00
   144.000   1.42951181e+00
   144.500   1.43855426e+00
   145.000   1.44767123e+00
   145.500   1.45686425e+00
   146.000   1.46613487e+00
   146.500   1.47548470e+00
   147.000   1.48491540e+00
   147.500   1.49442867e+00
   148.000   1.50402628e+00
   148.500   1.51371003e+00
   149.000   1.52348179e+00
   149.500   1.53334348e+00
   150.000   1.54329708e+00
   150.500   1.55334465e+00
   151.000   1.56348830e+00
   151.500   1.57373020e+00
   152.000   1.58407261e+00
   152.500   1.59451784e+00
   153.000   1.60506831e+00
   153.500   1.61572650e+00
   154.000   1.62649498e+00
   154.500   1.63737639e+00
   155.000   1.64837350e+00
   155.500   1.65948913e+00
   156.000   1.67072625e+00
   156.500   1.68208790e+00
   157.000   1.69357724e+00
   157.500   1.70519755e+00
   158.000   1.71695222e+00
   158.500   1.72884478e+00
   159.000   1.74087887e+00
   159.500   1.75305828e+00
   160.000   1.76538695e+00
   160.500   1.77786894e+00
   161.000   1.79050849e+00
   161.500   1.80330997e+00
   162.000   1.81627796e+00
   162.500   1.82941716e+00
   163.000   1.84273250e+00
   163.500   1.85622905e+00
   164.000   1.86991212e+00
   164.500   1.88378719e+00
   165.000   1.89785998e+00
   165.500   1.91213641e+00
   166.000   1.92662265e+00
   166.500   1.94132511e+00
   167.000   1.95625046e+00
   167.500   1.97140562e+00
   168.000   1.98679781e+00
   168.500   2.00243453e+00
   169.000   2.01832361e+00
   169.500   2.03447317e+00
   170.000   2.05089170e+00
   170.500   2.06758803e+00
   171.000   2.08457136e+00
   171.500   2.10185129e+00
   172.000   2.11943784e+00
   172.500   2.13734143e+00
   173.000   2.15557296e+00
   173.500   2.17414380e+00
   174.000   2.19306581e+00
   174.500   2.21235141e+00
   175.000   2.23201351e+00
   175.500   2.25206567e+00
   176.000   2.27252201e+00
   176.500   2.29339731e+00
   177.000   2.31470702e+00
   177.500   2.33646732e+00
   178.000   2.35869511e+00
   178.500   2.38140808e+00
   179.000   2.40462477e+00
   179.500   2.42836457e+00
   180.000   2.45264779e+00
   180.500   2.47749571e+00
   181.000   2.50293062e+00
   181.500   2.52897589e+00
   182.000   2.55565599e+00
   182.500   2.58299661e+00
   183.000   2.61102467e+00
   183.500   2.63976841e+00
   184.000   2.66925744e+00
   184.500   2.69952284e+00
   185.000   2.73059723e+00
   185.500   2.76251482e+00
   186.000   2.79531153e+00
   186.500   2.82902507e+00
   187.000   2.86369501e+00
   187.500   2.89936291e+00
   188.000   2.93607237e+00
   188.500   2.97386920e+00
   189.000   3.01280145e+00
   189.500   3.05291958e+00
   190.000   3.09427654e+00
   190.500   3.13692790e+00
   191.000   3.18093193e+00
   191.500   3.22634978e+00
   192.000   3.27324554e+00
   192.500   3.32168638e+00
   193.000   3.37174265e+00
   193.500   3.42348802e+00
   194.000   3.47699954e+00
   194.500   3.53235774e+00
   195.000   3.58964674e+00
   195.500   3.64895428e+00
   196.000   3.71037178e+00
   196.500   3.77399436e+00
   197.000   3.83992080e+00
   197.500   3.90825354e+00
   198.000   3.97909852e+00
   198.500   4.05256507e+00
   199.000   4.12876568e+00
   199.500   4.20781570e+00
   200.000   4.28983292e+00
   200.500   4.37493710e+00
   201.000   4.46324934e+00
   201.500   4.55489128e+00
   202.000   4.64998416e+00
   202.500   4.74864768e+00
   203.000   4.85099864e+00
   203.500   4.95714929e+00
   204.000   5.06720544e+00
   204.500   5.18126425e+00
   205.000   5.29941167e+00
   205.500   5.42171944e+00
   206.000   5.54824177e+00
   206.500   5.67901153e+00
   207.000   5.81403598e+00
   207.500   5.95329205e+00
   208.000   6.09672117e+00
   208.500   6.24422364e+00
   209.000   6.39565261e+00
   209.500   6.55080777e+00
   210.000   6.70942880e+00
   210.500   6.87118883e+00
   211.000   7.03568799e+00
   211.500   7.20244742e+00
   212.000   7.37090399e+00
   212.500   7.54040607e+00
   213.000   7.71021080e+00
   213.500   7.87948334e+00
   214.000   8.04729837e+00
   214.500   8.21264462e+00
   215.000   8.37443244e+00
   215.500   8.53150508e+00
   216.000   8.68265363e+00
   216.500   8.82663578e+00
   217.000   8.96219811e+00
   217.500   9.08810151e+00
   218.000   9.20314900e+00
   218.500   9.30621501e+00
   219.000   9.39627490e+00
   219.500   9.47243341e+00
   220.000   9.53395056e+00
   220.500   9.58026378e+00
   221.000   9.61100486e+00
   221.500   9.62601084e+00
   222.000   9.62532825e+00
   222.500   9.60921042e+00
   223.000   9.57810803e+00
   223.500   9.53265359e+00
   224.000   9.47364075e+00
   224.500   9.40199965e+00
   225.000   9.31876957e+00
   225.500   9.22507042e+00
   226.000   9.12207422e+00
   226.500   9.01097787e+00
   227.000   8.89297799e+00
   227.500   8.76924872e+00
   228.000   8.64092282e+00
   228.500   8.50907631e+00
   229.000   8.37471670e+00
   229.500   8.23877454e+00
   230.000   8.10209822e+00
   230.500   7.96545138e+00
   231.000   7.82951279e+00
   231.500   7.69487801e+00
   232.000   7.56206266e+00
   232.500   7.43150679e+00
   233.000   7.30358000e+00
   233.500   7.17858701e+00
   234.000   7.05677360e+00
   234.500   6.93833243e+00
   235.000   6.82340888e+00
   235.500   6.71210654e+00
   236.000   6.60449251e+00
   236.500   6.50060227e+00
   237.000   6.40044413e+00
   237.500   6.30400335e+00
   238.000   6.21124580e+00
   238.500   6.12212125e+00
   239.000   6.03656626e+00
   239.500   5.95450679e+00
   240.000   5.87586039e+00
   240.500   5.80053815e+00
   241.000   5.72844641e+00
   241.500   5.65948813e+00
   242.000   5.59356419e+00
   242.500   5.53057435e+00
   243.000   5.47041816e+00
   243.500   5.41299564e+00
   244.000   5.35820792e+00
   244.500   5.30595766e+00
   245.000   5.25614948e+00
   245.500   5.20869025e+00
   246.000   5.16348931e+00
   246.500   5.12045867e+00
   247.000   5.07951309e+00
   247.500   5.04057023e+00
   248.000   5.00355062e+00
   248.500   4.96837773e+00
   249.000   4.93497794e+00
   249.500   4.90328051e+00
   250.000   4.87321755e+00
   250.500   4.84472397e+00
   251.000   4.81773738e+00
   251.500   4.79219806e+00
   252.000   4.76804884e+00
   252.500   4.74523505e+00
   253.000   4.72370442e+00
   253.500   4.70340698e+00
   254.000   4.68429501e+00
   254.500   4.66632289e+00
   255.000   4.64944709e+00
   255.500   4.63362603e+00
   256.000   4.61881999e+00
   256.500   4.60499109e+00
   257.000   4.59210314e+00
   257.500   4.58012160e+00
   258.000   4.56901350e+00
   258.500   4.55874738e+00
   259.000   4.54929319e+00
   259.500   4.54062226e+00
   260.000   4.53270719e+00
   260.500   4.52552184e+00
   261.000   4.51904126e+00
   261.500   4.51324160e+00
   262.000   4.50810009e+00
   262.500   4.50359499e+00
   263.000   4.49970553e+00
   263.500   4.49641184e+00
   264.000   4.49369497e+00
   264.500   4.49153679e+00
   265.000   4.48991997e+00
   265.500   4.48882797e+00
   266.000   4.48824494e+00
   266.500   4.48815575e+00
   267.000   4.48854592e+00
   267.500   4.48940161e+00
   268.000   4.49070957e+00
   268.500   4.49245714e+00
   269.000   4.49463218e+00
   269.500   4.49722311e+00
   270.000   4.50021881e+00
   270.500   4.50360866e+00
   271.000   4.50738248e+00
   271.500   4.51153055e+00
   272.000   4.51604352e+00
   272.500   4.52091247e+00
   273.000   4.52612884e+00
   273.500   4.53168444e+00
   274.000   4.53757142e+00
   274.500   4.54378225e+00
   275.000   4.55030972e+00
   275.500   4.55714692e+00
   276.000   4.56428721e+00
   276.500   4.57172425e+00
   277.000   4.57945194e+00
   277.500   4.58746441e+00
   278.000   4.59575606e+00
   278.500   4.60432149e+00
   279.000   4.61315551e+00
   279.500   4.62225313e+00
   280.000   4.63160956e+00
   280.500   4.64122019e+00
   281.000   4.65108057e+00
   281.500   4.66118640e+00
   282.000   4.67153357e+00
   282.500   4.68211807e+00
   283.000   4.69293605e+00
   283.500   4.70398379e+00
   284.000   4.71525769e+00
   284.500   4.72675426e+00
   285.000   4.73847015e+00
   285.500   4.75040210e+00
   286.000   4.76254698e+00
   286.500   4.77490175e+00
   287.000   4.78746352e+00
   287.500   4.80022948e+00
   288.000   4.81319698e+00
   288.500   4.82636346e+00
   289.000   4.83972652e+00
   289.500   4.85328388e+00
   290.000   4.86703339e+00
   290.500   4.88097308e+00
   291.000   4.89510108e+00
   291.500   4.90941570e+00
   292.000   4.92391538e+00
   292.500   4.93859871e+00
   293.000   4.95346441e+00
   293.500   4.96851133e+00
   294.000   4.98373845e+00
   294.500   4.99914486e+00
   295.000   5.01472976e+00
   295.500   5.03049244e+00
   296.000   5.04643228e+00
   296.500   5.06254871e+00
   297.000   5.07884126e+00
   297.500   5.09530950e+00
   298.000   5.11195304e+00
   298.500   5.12877155e+00
   299.000   5.14576473e+00
   299.500   5.16293231e+00
   300.000   5.18027406e+00
   300.500   5.19778977e+00
   301.000   5.21547927e+00
   301.500   5.23334240e+00
   302.000   5.25137904e+00
   302.500   5.26958909e+00
   303.000   5.28797247e+00
   303.500   5.30652914e+00
   304.000   5.32525909e+00
   304.500   5.34416232e+00
   305.000   5.36323889e+00
   305.500   5.38248886e+00
   306.000   5.40191234e+00
   306.500   5.42150947e+00
   307.000   5.44128042e+00
   307.500   5.46122539e+00
   308.000   5.48134463e+00
   308.500   5.50163841e+00
   309.000   5.52210704e+00
   309.500   5.54275086e+00
   310.000   5.56357026e+00
   310.500   5.58456565e+00
   311.000   5.60573749e+00
   311.500   5.62708626e+00
   312.000   5.64861249e+00
   312.500   5.67031674e+00
   313.000   5.69219961e+00
   313.500   5.71426173e+00
   314.000   5.73650377e+00
   314.500   5.75892643e+00
   315.000   5.78153046e+00
   315.500   5.80431664e+00
   316.000   5.82728577e+00
   316.500   5.85043871e+00
   317.000   5.87377634e+00
   317.500   5.89729958e+00
   318.000   5.92100938e+00
   318.500   5.94490674e+00
   319.000   5.96899269e+00
   319.500   5.99326829e+00
   320.000   6.01773463e+00
   320.500   6.04239285e+00
   321.000   6.06724412e+00
   321.500   6.09228965e+00
   322.000   6.11753068e+00
   322.500   6.14296848e+00
   323.000   6.16860438e+00
   323.500   6.19443971e+00
   324.000   6.22047588e+00
   324.500   6.24671430e+00
   325.000   6.27315644e+00
   325.500   6.29980379e+00
   326.000   6.32665789e+00
   326.500   6.35372031e+00
   327.000   6.38099267e+00
   327.500   6.40847661e+00
   328.000   6.43617383e+00
   328.500   6.46408606e+00
   329.000   6.49221505e+00
   329.500   6.52056262e+00
   330.000   6.54913062e+00
   330.500   6.57792093e+00
   331.000   6.60693548e+00
   331.500   6.63617625e+00
   332.000   6.66564525e+00
   332.500   6.69534453e+00
   333.000   6.72527619e+00
   333.500   6.75544238e+00
   334.000   6.78584528e+00
   334.500   6.81648713e+00
   335.000   6.84737020e+00
   335.500   6.87849682e+00
   336.000   6.90986935e+00
   336.500   6.94149022e+00
   337.000   6.97336189e+00
   337.500   7.00548689e+00
   338.000   7.03786777e+00
   338.500   7.07050714e+00
   339.000   7.10340769e+00
   339.500   7.13657214e+00
   340.000   7.17000324e+00
   340.500   7.20370384e+00
   341.000   7.23767681e+00
   341.500   7.27192510e+00
   342.000   7.30645170e+00
   342.500   7.34125967e+00
   343.000   7.37635211e+00
   343.500   7.41173222e+00
   344.000   7.44740321e+00
   344.500   7.48336839e+00
   345.000   7.51963112e+00
   345.500   7.55619483e+00
   346.000   7.59306301e+00
   346.500   7.63023922e+00
   347.000   7.66772710e+00
   347.500   7.70553034e+00
   348.000   7.74365272e+00
   348.500   7.78209808e+00
   349.000   7.82087034e+00
   349.500   7.85997351e+00
   350.000   7.89941164e+00
   350.500   7.93918891e+00
   351.000   7.97930954e+00
   351.500   8.01977786e+00
   352.000   8.06059827e+00
   352.500   8.10177526e+00
   353.000   8.14331341e+00
   353.500   8.18521738e+00
   354.000   8.22749195e+00
   354.500   8.27014197e+00
   355.000   8.31317239e+00
   355.500   8.35658827e+00
   356.000   8.40039476e+00
   356.500   8.44459712e+00
   357.000   8.48920072e+00
   357.500   8.53421102e+00
   358.000   8.57963362e+00
   358.500   8.62547420e+00
   359.000   8.67173859e+00
   359.500   8.71843271e+00
   360.000   8.76556263e+00
   360.500   8.81313452e+00
   361.000   8.86115469e+00
   361.500   8.90962958e+00
   362.000   8.95856576e+00
   362.500   9.00796995e+00
   363.000   9.05784899e+00
   363.500   9.10820988e+00
   364.000   9.15905977e+00
   364.500   9.21040595e+00
   365.000   9.26225588e+00
   365.500   9.31461715e+00
   366.000   9.36749755e+00
   366.500   9.42090502e+00
   367.000   9.47484767e+00
   367.500   9.52933379e+00
   368.000   9.58437184e+00
   368.500   9.63997048e+00
   369.000   9.69613856e+00
   369.500   9.75288511e+00
   370.000   9.81021937e+00
   370.500   9.86815078e+00
   371.000   9.92668900e+00
   371.500   9.98584390e+00
   372.000   1.00456256e+01
   372.500   1.01060443e+01
   373.000   1.01671107e+01
   373.500   1.02288355e+01
   374.000   1.02912298e+01
   374.500   1.03543049e+01
   375.000   1.04180723e+01
   375.500   1.04825438e+01
   376.000   1.05477317e+01
   376.500   1.06136482e+01
   377.000   1.06803060e+01
   377.500   1.07477183e+01
   378.000   1.08158982e+01
   378.500   1.08848595e+01
   379.000   1.09546161e+01
   379.500   1.10251823e+01
   380.000   1.10965729e+01
   380.500   1.11688028e+01
   381.000   1.12418877e+01
   381.500   1.13158432e+01
   382.000   1.13906856e+01
   382.500   1.14664316e+01
   383.000   1.15430983e+01
   383.500   1.16207033e+01
   384.000   1.16992644e+01
   384.500   1.17788002e+01
   385.000   1.18593296e+01
   385.500   1.19408721e+01
   386.000   1.20234476e+01
   386.500   1.21070766e+01
   387.000   1.21917800e+01
   387.500   1.22775796e+01
   388.000   1.23644973e+01
   388.500   1.24525561e+01
   389.000   1.25417792e+01
   389.500   1.26321907e+01
   390.000   1.27238152e+01
   390.500   1.28166781e+01
   391.000   1.29108054e+01
   391.500   1.30062238e+01
   392.000   1.31029610e+01
   392.500   1.32010451e+01
   393.000   1.33005054e+01
   393.500   1.34013716e+01
   394.000   1.35036747e+01
   394.500   1.36074462e+01
   395.000   1.37127189e+01
   395.500   1.38195263e+01
   396.000   1.39279028e+01
   396.500   1.40378842e+01
   397.000   1.41495070e+01
   397.500   1.42628091e+01
   398.000   1.43778292e+01
   398.500   1.44946075e+01
   399.000   1.46131853e+01
   399.500   1.47336051e+01
   400.000   1.48559109e+01
   400.500   1.49801479e+01
   401.000   1.51063628e+01
   401.500   1.52346039e+01
   402.000   1.53649207e+01
   402.500   1.54973646e+01
   403.000   1.56319887e+01
   403.500   1.57688474e+01
   404.000   1.59079974e+01
   404.500   1.60494969e+01
   405.000   1.61934062e+01
   405.500   1.63397875e+01
   406.000   1.64887052e+01
   406.500   1.66402258e+01
   407.000   1.67944180e+01
   407.500   1.69513531e+01
   408.000   1.71111046e+01
   408.500   1.72737486e+01
   409.000   1.74393639e+01
   409.500   1.76080320e+01
   410.000   1.77798374e+01
   410.500   1.79548675e+01
   411.000   1.81332129e+01
   411.500   1.83149674e+01
   412.000   1.85002283e+01
   412.500   1.86890963e+01
   413.000   1.88816759e+01
   413.500   1.90780756e+01
   414.000   1.92784077e+01
   414.500   1.94827889e+01
   415.000   1.96913402e+01
   415.500   1.99041872e+01
   416.000   2.01214604e+01
   416.500   2.03432954e+01
   417.000   2.05698327e+01
   417.500   2.08012188e+01
   418.000   2.10376056e+01
   418.500   2.12791511e+01
   419.000   2.15260197e+01
   419.500   2.17783823e+01
   420.000   2.20364168e+01
   420.500   2.23003082e+01
   421.000   2.25702491e+01
   421.500   2.28464403e+01
   422.000   2.31290907e+01
   422.500   2.34184178e+01
   423.000   2.37146486e+01
   423.500   2.40180195e+01
   424.000   2.43287770e+01
   424.500   2.46471782e+01
   425.000   2.49734913e+01
   425.500   2.53079962e+01
   426.000   2.56509848e+01
   426.500   2.60027623e+01
   427.000   2.63636469e+01
   427.500   2.67339713e+01
   428.000   2.71140831e+01
   428.500   2.75043455e+01
   429.000   2.79051381e+01
   429.500   2.83168579e+01
   430.000   2.87399201e+01
   430.500   2.91747591e+01
   431.000   2.96218293e+01
   431.500   3.00816065e+01
   432.000   3.05545884e+01
   432.500   3.10412966e+01
   433.000   3.15422770e+01
   433.500   3.20581016e+01
   434.000   3.25893696e+01
   434.500   3.31367089e+01
   435.000   3.37007775e+01
   435.500   3.42822653e+01
   436.000   3.48818954e+01
   436.500   3.55004259e+01
   437.000   3.61386518e+01
   437.500   3.67974066e+01
   438.000   3.74775647e+01
   438.500   3.81800428e+01
   439.000   3.89058022e+01
   439.500   3.96558513e+01
   440.000   4.04312471e+01
   440.500   4.12330981e+01
   441.000   4.20625662e+01
   441.500   4.29208690e+01
   442.000   4.38092826e+01
   442.500   4.47291433e+01
   443.000   4.56818504e+01
   443.500   4.66688681e+01
   444.000   4.76917281e+01
   444.500   4.87520312e+01
   445.000   4.98514492e+01
   445.500   5.09917267e+01
   446.000   5.21746823e+01
   446.500   5.34022095e+01
   447.000   5.46762766e+01
   447.500   5.59989273e+01
   448.000   5.73722789e+01
   448.500   5.87985207e+01
   449.000   6.02799109e+01
   449.500   6.18187724e+01
   450.000   6.34174865e+01
   450.500   6.50784852e+01
   451.000   6.68042417e+01
   451.500   6.85972572e+01
   452.000   7.04600462e+01
   452.500   7.23951171e+01
   453.000   7.44049500e+01
   453.500   7.64919695e+01
   454.000   7.86585125e+01
   454.500   8.09067903e+01
   455.000   8.32388449e+01
   455.500   8.56564979e+01
   456.000   8.81612914e+01
   456.500   9.07544213e+01
   457.000   9.34366616e+01
   457.500   9.62082785e+01
   458.000   9.90689362e+01
   458.500   1.02017592e+02
   459.000   1.05052383e+02
   459.500   1.08170502e+02
   460.000   1.11368070e+02
   460.500   1.14640001e+02
   461.000   1.17979860e+02
   461.500   1.21379734e+02
   462.000   1.24830096e+02
   462.500   1.28319690e+02
   463.000   1.31835429e+02
   463.500   1.35362327e+02
   464.000   1.38883457e+02
   464.500   1.42379968e+02
   465.000   1.45831143e+02
   465.500   1.49214533e+02
   466.000   1.52506155e+02
   466.500   1.55680774e+02
   467.000   1.58712263e+02
   467.500   1.61574038e+02
   468.000   1.64239569e+02
   468.500   1.66682953e+02
   469.000   1.68879520e+02
   469.500   1.70806470e+02
   470.000   1.72443490e+02
   470.500   1.73773348e+02
   471.000   1.74782402e+02
   471.500   1.75461029e+02
   472.000   1.75803928e+02
   472.500   1.75810281e+02
   473.000   1.75483772e+02
   473.500   1.74832458e+02
   474.000   1.73868499e+02
   474.500   1.72607760e+02
   475.000   1.71069323e+02
   475.500   1.69274919e+02
   476.000   1.67248317e+02
   476.500   1.65014701e+02
   477.000   1.62600065e+02
   477.500   1.60030639e+02
   478.000   1.57332373e+02
   478.500   1.54530488e+02
   479.000   1.51649103e+02
   479.500   1.48710944e+02
   480.000   1.45737122e+02
   480.500   1.42746988e+02
   481.000   1.39758053e+02
   481.500   1.36785961e+02
   482.000   1.33844508e+02
   482.500   1.30945703e+02
   483.000   1.28099853e+02
   483.500   1.25315672e+02
   484.000   1.22600397e+02
   484.500   1.19959922e+02
   485.000   1.17398928e+02
   485.500   1.14921007e+02
   486.000   1.12528797e+02
   486.500   1.10224093e+02
   487.000   1.08007967e+02
   487.500   1.05880862e+02
   488.000   1.03842696e+02
   488.500   1.01892939e+02
   489.000   1.00030696e+02
   489.500   9.82547702e+01
   490.000   9.65637255e+01
   490.500   9.49559377e+01
   491.000   9.34296409e+01
   491.500   9.19829663e+01
   492.000   9.06139764e+01
   492.500   8.93206938e+01
   493.000   8.81011258e+01
   493.500   8.69532846e+01
   494.000   8.58752051e+01
   494.500   8.48649587e+01
   495.000   8.39206652e+01
   495.500   8.30405025e+01
   496.000   8.22227140e+01
   496.500   8.14656146e+01
   497.000   8.07675959e+01
   497.500   8.01271291e+01
   498.000   7.95427682e+01
   498.500   7.90131516e+01
   499.000   7.85370034e+01
   499.500   7.81131339e+01
   500.000   7.77404402e+01
   500.500   7.74179063e+01
   501.000   7.71446021e+01
   501.500   7.69196840e+01
   502.000   7.67423937e+01
   502.500   7.66120576e+01
   503.000   7.65280866e+01
   503.500   7.64899752e+01
   504.000   7.64973008e+01
   504.500   7.65497237e+01
   505.000   7.66469863e+01
   505.500   7.67889128e+01
   506.000   7.69754091e+01
   506.500   7.72064630e+01
   507.000   7.74821440e+01
   507.500   7.78026037e+01
   508.000   7.81680760e+01
   508.500   7.85788783e+01
   509.000   7.90354116e+01
   509.500   7.95381618e+01
   510.000   8.00877008e+01
   510.500   8.06846877e+01
   511.000   8.13298706e+01
   511.500   8.20240878e+01
   512.000   8.27682702e+01
   512.500   8.35634428e+01
   513.000   8.44107271e+01
   513.500   8.53113438e+01
   514.000   8.62666146e+01
   514.500   8.72779655e+01
   515.000   8.83469288e+01
   515.500   8.94751466e+01
   516.000   9.06643733e+01
   516.500   9.19164785e+01
   517.000   9.32334498e+01
   517.500   9.46173957e+01
   518.000   9.60705480e+01
   518.500   9.75952645e+01
   519.000   9.91940308e+01
   519.500   1.00869462e+02
   520.000   1.02624303e+02
   520.500   1.04461432e+02
   521.000   1.06383856e+02
   521.500   1.08394711e+02
   522.000   1.10497259e+02
   522.500   1.12694884e+02
   523.000   1.14991087e+02
   523.500   1.17389472e+02
   524.000   1.19893742e+02
   524.500   1.22507680e+02
   525.000   1.25235130e+02
   525.500   1.28079978e+02
   526.000   1.31046123e+02
   526.500   1.34137444e+02
   527.000   1.37357758e+02
   527.500   1.40710780e+02
   528.000   1.44200059e+02
   528.500   1.47828919e+02
   529.000   1.51600383e+02
   529.500   1.55517085e+02
   530.000   1.59581173e+02
   530.500   1.63794197e+02
   531.000   1.68156984e+02
   531.500   1.72669493e+02
   532.000   1.77330669e+02
   532.500   1.82138266e+02
   533.000   1.87088667e+02
   533.500   1.92176695e+02
   534.000   1.97395405e+02
   534.500   2.02735883e+02
   535.000   2.08187037e+02
   535.500   2.13735404e+02
   536.000   2.19364966e+02
   536.500   2.25056997e+02
   537.000   2.30789950e+02
   537.500   2.36539396e+02
   538.000   2.42278027e+02
   538.500   2.47975741e+02
   539.000   2.53599826e+02
   539.500   2.59115249e+02
   540.000   2.64485060e+02
   540.500   2.69670921e+02
   541.000   2.74633749e+02
   541.500   2.79334480e+02
   542.000   2.83734915e+02
   542.500   2.87798642e+02
   543.000   2.91491995e+02
   543.500   2.94785001e+02
   544.000   2.97652285e+02
   544.500   3.00073877e+02
   545.000   3.02035881e+02
   545.500   3.03530967e+02
   546.000   3.04558665e+02
   546.500   3.05125422e+02
   547.000   3.05244455e+02
   547.500   3.04935368e+02
   548.000   3.04223594e+02
   548.500   3.03139668e+02
   549.000   3.01718389e+02
   549.500   2.99997904e+02
   550.000   2.98018772e+02
   550.500   2.95823030e+02
   551.000   2.93453325e+02
   551.500   2.90952109e+02
   552.000   2.88360945e+02
   552.500   2.85719925e+02
   553.000   2.83067193e+02
   553.500   2.80438602e+02
   554.000   2.77867462e+02
   554.500   2.75384399e+02
   555.000   2.73017285e+02
   555.500   2.70791252e+02
   556.000   2.68728748e+02
   556.500   2.66849644e+02
   557.000   2.65171363e+02
   557.500   2.63709024e+02
   558.000   2.62475600e+02
   558.500   2.61482064e+02
   559.000   2.60737533e+02
   559.500   2.60249388e+02
   560.000   2.60023384e+02
   560.500   2.60063729e+02
   561.000   2.60373140e+02
   561.500   2.60952871e+02
   562.000   2.61802712e+02
   562.500   2.62920958e+02
   563.000   2.64304352e+02
   563.500   2.65947994e+02
   564.000   2.67845231e+02
   564.500   2.69987514e+02
   565.000   2.72364247e+02
   565.500   2.74962607e+02
   566.000   2.77767363e+02
   566.500   2.80760692e+02
   567.000   2.83922005e+02
   567.500   2.87227783e+02
   568.000   2.90651459e+02
   568.500   2.94163337e+02
   569.000   2.97730579e+02
   569.500   3.01317267e+02
   570.000   3.04884566e+02
   570.500   3.08390993e+02
   571.000   3.11792812e+02
   571.500   3.15044551e+02
   572.000   3.18099665e+02
   572.500   3.20911306e+02
   573.000   3.23433216e+02
   573.500   3.25620709e+02
   574.000   3.27431693e+02
   574.500   3.28827719e+02
   575.000   3.29774994e+02
   575.500   3.30245302e+02
   576.000   3.30216802e+02
   576.500   3.29674646e+02
   577.000   3.28611380e+02
   577.500   3.27027115e+02
   578.000   3.24929444e+02
   578.500   3.22333124e+02
   579.000   3.19259530e+02
   579.500   3.15735922e+02
   580.000   3.11794568e+02
   580.500   3.07471758e+02
   581.000   3.02806779e+02
   581.500   2.97840878e+02
   582.000   2.92616274e+02
   582.500   2.87175235e+02
   583.000   2.81559270e+02
   583.500   2.75808428e+02
   584.000   2.69960738e+02
   584.500   2.64051765e+02
   585.000   2.58114306e+02
   585.500   2.52178187e+02
   586.000   2.46270171e+02
   586.500   2.40413944e+02
   587.000   2.34630182e+02
   587.500   2.28936665e+02
   588.000   2.23348437e+02
   588.500   2.17877994e+02
   589.000   2.12535493e+02
   589.500   2.07328960e+02
   590.000   2.02264516e+02
   590.500   1.97346581e+02
   591.000   1.92578085e+02
   591.500   1.87960654e+02
   592.000   1.83494796e+02
   592.500   1.79180057e+02
   593.000   1.75015178e+02
   593.500   1.70998224e+02
   594.000   1.67126706e+02
   594.500   1.63397686e+02
   595.000   1.59807869e+02
   595.500   1.56353686e+02
   596.000   1.53031362e+02
   596.500   1.49836977e+02
   597.000   1.46766517e+02
   597.500   1.43815916e+02
   598.000   1.40981096e+02
   598.500   1.38257993e+02
   599.000   1.35642585e+02
   599.500   1.33130910e+02
   600.000   1.30719085e+02
   600.500   1.28403315e+02
   601.000   1.26179910e+02
   601.500   1.24045282e+02
   602.000   1.21995961e+02
   602.500   1.20028591e+02
   603.000   1.18139935e+02
   603.500   1.16326877e+02
   604.000   1.14586418e+02
   604.500   1.12915680e+02
   605.000   1.11311899e+02
   605.500   1.09772427e+02
   606.000   1.08294726e+02
   606.500   1.06876370e+02
   607.000   1.05515033e+02
   607.500   1.04208496e+02
   608.000   1.02954636e+02
   608.500   1.01751425e+02
   609.000   1.00596927e+02
   609.500   9.94892933e+01
   610.000   9.84267591e+01
   610.500   9.74076404e+01
   611.000   9.64303304e+01
   611.500   9.54932961e+01
   612.000   9.45950751e+01
   612.500   9.37342722e+01
   613.000   9.29095569e+01
   613.500   9.21196600e+01
   614.000   9.13633708e+01
   614.500   9.06395348e+01
   615.000   8.99470506e+01
   615.500   8.92848678e+01
   616.000   8.86519844e+01
   616.500   8.80474448e+01
   617.000   8.74703371e+01
   617.500   8.69197919e+01
   618.000   8.63949795e+01
   618.500   8.58951085e+01
   619.000   8.54194239e+01
   619.500   8.49672056e+01
   620.000   8.45377664e+01
   620.500   8.41304508e+01
   621.000   8.37446336e+01
   621.500   8.33797181e+01
   622.000   8.30351354e+01
   622.500   8.27103427e+01
   623.000   8.24048222e+01
   623.500   8.21180804e+01
   624.000   8.18496463e+01
   624.500   8.15990712e+01
   625.000   8.13659271e+01
   625.500   8.11498063e+01
   626.000   8.09503200e+01
   626.500   8.07670983e+01
   627.000   8.05997884e+01
   627.500   8.04480549e+01
   628.000   8.03115783e+01
   628.500   8.01900549e+01
   629.000   8.00831959e+01
   629.500   7.99907270e+01
   630.000   7.99123875e+01
   630.500   7.98479302e+01
   631.000   7.97971207e+01
   631.500   7.97597370e+01
   632.000   7.97355687e+01
   632.500   7.97244174e+01
   633.000   7.97260953e+01
   633.500   7.97404256e+01
   634.000   7.97672418e+01
   634.500   7.98063874e+01
   635.000   7.98577155e+01
   635.500   7.99210889e+01
   636.000   7.99963792e+01
   636.500   8.00834670e+01
   637.000   8.01822416e+01
   637.500   8.02926006e+01
   638.000   8.04144496e+01
   638.500   8.05477024e+01
   639.000   8.06922805e+01
   639.500   8.08481129e+01
   640.000   8.10151360e+01
   640.500   8.11932936e+01
   641.000   8.13825365e+01
   641.500   8.15828225e+01
   642.000   8.17941162e+01
   642.500   8.20163892e+01
   643.000   8.22496194e+01
   643.500   8.24937914e+01
   644.000   8.27488965e+01
   644.500   8.30149319e+01
   645.000   8.32919017e+01
   645.500   8.35798157e+01
   646.000   8.38786905e+01
   646.500   8.41885484e+01
   647.000   8.45094181e+01
   647.500   8.48413344e+01
   648.000   8.51843383e+01
   648.500   8.55384768e+01
   649.000   8.59038030e+01
   649.500   8.62803762e+01
   650.000   8.66682618e+01
   650.500   8.70675313e+01
   651.000   8.74782625e+01
   651.500   8.79005395e+01
   652.000   8.83344525e+01
   652.500   8.87800981e+01
   653.000   8.92375793e+01
   653.500   8.97070057e+01
   654.000   9.01884932e+01
   654.500   9.06821646e+01
   655.000   9.11881492e+01
   655.500   9.17065835e+01
   656.000   9.22376105e+01
   656.500   9.27813805e+01
   657.000   9.33380512e+01
   657.500   9.39077873e+01
   658.000   9.44907612e+01
   658.500   9.50871529e+01
   659.000   9.56971504e+01
   659.500   9.63209494e+01
   660.000   9.69587541e+01
   660.500   9.76107769e+01
   661.000   9.82772391e+01
   661.500   9.89583705e+01
   662.000   9.96544102e+01
   662.500   1.00365607e+02
   663.000   1.01092218e+02
   663.500   1.01834512e+02
   664.000   1.02592767e+02
   664.500   1.03367271e+02
   665.000   1.04158325e+02
   665.500   1.04966238e+02
   666.000   1.05791332e+02
   666.500   1.06633943e+02
   667.000   1.07494416e+02
   667.500   1.08373110e+02
   668.000   1.09270398e+02
   668.500   1.10186665e+02
   669.000   1.11122312e+02
   669.500   1.12077753e+02
   670.000   1.13053418e+02
   670.500   1.14049752e+02
   671.000   1.15067219e+02
   671.500   1.16106295e+02
   672.000   1.17167478e+02
   672.500   1.18251281e+02
   673.000   1.19358240e+02
   673.500   1.20488906e+02
   674.000   1.21643854e+02
   674.500   1.22823679e+02
   675.000   1.24028998e+02
   675.500   1.25260451e+02
   676.000   1.26518703e+02
   676.500   1.27804444e+02
   677.000   1.29118388e+02
   677.500   1.30461280e+02
   678.000   1.31833891e+02
   678.500   1.33237021e+02
   679.000   1.34671502e+02
   679.500   1.36138200e+02
   680.000   1.37638012e+02
   680.500   1.39171871e+02
   681.000   1.40740748e+02
   681.500   1.42345651e+02
   682.000   1.43987630e+02
   682.500   1.45667776e+02
   683.000   1.47387224e+02
   683.500   1.49147155e+02
   684.000   1.50948799e+02
   684.500   1.52793436e+02
   685.000   1.54682401e+02
   685.500   1.56617081e+02
   686.000   1.58598924e+02
   686.500   1.60629438e+02
   687.000   1.62710194e+02
   687.500   1.64842833e+02
   688.000   1.67029062e+02
   688.500   1.69270666e+02
   689.000   1.71569505e+02
   689.500   1.73927520e+02
   690.000   1.76346740e+02
   690.500   1.78829280e+02
   691.000   1.81377352e+02
   691.500   1.83993264e+02
   692.000   1.86679430e+02
   692.500   1.89438372e+02
   693.000   1.92272726e+02
   693.500   1.95185247e+02
   694.000   1.98178817e+02
   694.500   2.01256452e+02
   695.000   2.04421303e+02
   695.500   2.07676670e+02
   696.000   2.11026004e+02
   696.500   2.14472916e+02
   697.000   2.18021187e+02
   697.500   2.21674772e+02
   698.000   2.25437811e+02
   698.500   2.29314639e+02
   699.000   2.33309789e+02
   699.500   2.37428008e+02
   700.000   2.41674263e+02
   700.500   2.46053750e+02
   701.000   2.50571903e+02
   701.500   2.55234408e+02
   702.000   2.60047205e+02
   702.500   2.65016504e+02
   703.000   2.70148791e+02
   703.500   2.75450835e+02
   704.000   2.80929699e+02
   704.500   2.86592745e+02
   705.000   2.92447638e+02
   705.500   2.98502353e+02
   706.000   3.04765177e+02
   706.500   3.11244706e+02
   707.000   3.17949844e+02
   707.500   3.24889797e+02
   708.000   3.32074061e+02
   708.500   3.39512407e+02
   709.000   3.47214860e+02
   709.500   3.55191667e+02
   710.000   3.63453264e+02
   710.500   3.72010230e+02
   711.000   3.80873225e+02
   711.500   3.90052922e+02
   712.000   3.99559922e+02
   712.500   4.09404653e+02
   713.000   4.19597245e+02
   713.500   4.30147390e+02
   714.000   4.41064173e+02
   714.500   4.52355880e+02
   715.000   4.64029773e+02
   715.500   4.76091835e+02
   716.000   4.88546478e+02
   716.500   5.01396221e+02
   717.000   5.14641324e+02
   717.500   5.28279384e+02
   718.000   5.42304900e+02
   718.500   5.56708800e+02
   719.000   5.71477932e+02
   719.500   5.86594546e+02
   720.000   6.02035752e+02
   720.500   6.17772980e+02
   721.000   6.33771469e+02
   721.500   6.49989787e+02
   722.000   6.66379423e+02
   722.500   6.82884480e+02
   723.000   6.99441499e+02
   723.500   7.15979459e+02
   724.000   7.32419975e+02
   724.500   7.48677757e+02
   725.000   7.64661338e+02
   725.500   7.80274106e+02
   726.000   7.95415653e+02
   726.500   8.09983445e+02
   727.000   8.23874769e+02
   727.500   8.36988948e+02
   728.000   8.49229731e+02
   728.500   8.60507789e+02
   729.000   8.70743205e+02
   729.500   8.79867852e+02
   730.000   8.87827526e+02
   730.500   8.94583734e+02
   731.000   9.00115023e+02
   731.500   9.04417784e+02
   732.000   9.07506468e+02
   732.500   9.09413222e+02
   733.000   9.10186951e+02
   733.500   9.09891879e+02
   734.000   9.08605673e+02
   734.500   9.06417267e+02
   735.000   9.03424472e+02
   735.500   8.99731512e+02
   736.000   8.95446585e+02
   736.500   8.90679552e+02
   737.000   8.85539836e+02
   737.500   8.80134571e+02
   738.000   8.74567060e+02
   738.500   8.68935535e+02
   739.000   8.63332236e+02
   739.500   8.57842770e+02
   740.000   8.52545748e+02
   740.500   8.47512648e+02
   741.000   8.42807876e+02
   741.500   8.38488983e+02
   742.000   8.34607012e+02
   742.500   8.31206925e+02
   743.000   8.28328105e+02
   743.500   8.26004880e+02
   744.000   8.24267071e+02
   744.500   8.23140543e+02
   745.000   8.22647734e+02
   745.500   8.22808166e+02
   746.000   8.23638935e+02
   746.500   8.25155154e+02
   747.000   8.27370375e+02
   747.500   8.30296970e+02
   748.000   8.33946478e+02
   748.500   8.38329921e+02
   749.000   8.43458088e+02
   749.500   8.49341788e+02
   750.000   8.55992085e+02
   750.500   8.63420497e+02
   751.000   8.71639187e+02
   751.500   8.80661127e+02
   752.000   8.90500247e+02
   752.500   9.01171576e+02
   753.000   9.12691362e+02
   753.500   9.25077184e+02
   754.000   9.38348065e+02
   754.500   9.52524562e+02
   755.000   9.67628857e+02
   755.500   9.83684849e+02
   756.000   1.00071823e+03
   756.500   1.01875654e+03
   757.000   1.03782930e+03
   757.500   1.05796799e+03
   758.000   1.07920620e+03
   758.500   1.10157960e+03
   759.000   1.12512608e+03
   759.500   1.14988571e+03
   760.000   1.17590084e+03
   760.500   1.20321609e+03
   761.000   1.23187836e+03
   761.500   1.26193685e+03
   762.000   1.29344302e+03
   762.500   1.32645053e+03
   763.000   1.36101522e+03
   763.500   1.39719494e+03
   764.000   1.43504945e+03
   764.500   1.47464025e+03
   765.000   1.51603027e+03
   765.500   1.55928365e+03
   766.000   1.60446531e+03
   766.500   1.65164050e+03
   767.000   1.70087427e+03
   767.500   1.75223079e+03
   768.000   1.80577257e+03
   768.500   1.86155949e+03
   769.000   1.91964776e+03
   769.500   1.98008861e+03
   770.000   2.04292686e+03
   770.500   2.10819920e+03
   771.000   2.17593227e+03
   771.500   2.24614055e+03
   772.000   2.31882388e+03
   772.500   2.39396477e+03
   773.000   2.47152549e+03
   773.500   2.55144481e+03
   774.000   2.63363458e+03
   774.500   2.71797607e+03
   775.000   2.80431624e+03
   775.500   2.89246388e+03
   776.000   2.98218587e+03
   776.500   3.07320363e+03
   777.000   3.16518989e+03
   777.500   3.25776610e+03
   778.000   3.35050057e+03
   778.500   3.44290773e+03
   779.000   3.53444862e+03
   779.500   3.62453307e+03
   780.000   3.71252361e+03
   780.500   3.79774151e+03
   781.000   3.87947494e+03
   781.500   3.95698942e+03
   782.000   4.02954039e+03
   782.500   4.09638776e+03
   783.000   4.15681204e+03
   783.500   4.21013160e+03
   784.000   4.25572025e+03
   784.500   4.29302457e+03
   785.000   4.32157999e+03
   785.500   4.34102485e+03
   786.000   4.35111171e+03
   786.500   4.35171518e+03
   787.000   4.34283577e+03
   787.500   4.32459974e+03
   788.000   4.29725465e+03
   788.500   4.26116123e+03
   789.000   4.21678172e+03
   789.500   4.16466566e+03
   790.000   4.10543372e+03
   790.500   4.03976042e+03
   791.000   3.96835672e+03
   791.500   3.89195302e+03
   792.000   3.81128335e+03
   792.500   3.72707114e+03
   793.000   3.64001702e+03
   793.500   3.55078870e+03
   794.000   3.46001309e+03
   794.500   3.36827056e+03
   795.000   3.27609118e+03
   795.500   3.18395270e+03
   796.000   3.09228013e+03
   796.500   3.00144654e+03
   797.000   2.91177486e+03
   797.500   2.82354044e+03
   798.000   2.73697421e+03
   798.500   2.65226614e+03
   799.000   2.56956884e+03
   799.500   2.48900131e+03
   800.000   2.41065257e+03
   800.500   2.33458517e+03
   801.000   2.26083855e+03
   801.500   2.18943212e+03
   802.000   2.12036814e+03
   802.500   2.05363433e+03
   803.000   1.98920621e+03
   803.500   1.92704918e+03
   804.000   1.86712044e+03
   804.500   1.80937054e+03
   805.000   1.75374489e+03
   805.500   1.70018495e+03
   806.000   1.64862930e+03
   806.500   1.59901455e+03
   807.000   1.55127614e+03
   807.500   1.50534895e+03
   808.000   1.46116786e+03
   808.500   1.41866822e+03
   809.000   1.37778619e+03
   809.500   1.33845903e+03
   810.000   1.30062538e+03
   810.500   1.26422540e+03
   811.000   1.22920093e+03
   811.500   1.19549559e+03
   812.000   1.16305485e+03
   812.500   1.13182607e+03
   813.000   1.10175854e+03
   813.500   1.07280346e+03
   814.000   1.04491394e+03
   814.500   1.01804497e+03
   815.000   9.92153396e+02
   815.500   9.67197884e+02
   816.000   9.43138855e+02
   816.500   9.19938444e+02
   817.000   8.97560449e+02
   817.500   8.75970265e+02
   818.000   8.55134834e+02
   818.500   8.35022583e+02
   819.000   8.15603364e+02
   819.500   7.96848399e+02
   820.000   7.78730218e+02
   820.500   7.61222605e+02
   821.000   7.44300545e+02
   821.500   7.27940166e+02
   822.000   7.12118688e+02
   822.500   6.96814376e+02
   823.000   6.82006487e+02
   823.500   6.67675226e+02
   824.000   6.53801701e+02
   824.500   6.40367879e+02
   825.000   6.27356547e+02
   825.500   6.14751269e+02
   826.000   6.02536352e+02
   826.500   5.90696809e+02
   827.000   5.79218325e+02
   827.500   5.68087224e+02
   828.000   5.57290438e+02
   828.500   5.46815478e+02
   829.000   5.36650406e+02
   829.500   5.26783809e+02
   830.000   5.17204772e+02
   830.500   5.07902856e+02
   831.000   4.98868072e+02
   831.500   4.90090866e+02
   832.000   4.81562088e+02
   832.500   4.73272984e+02
   833.000   4.65215168e+02
   833.500   4.57380610e+02
   834.000   4.49761618e+02
   834.500   4.42350821e+02
   835.000   4.35141154e+02
   835.500   4.28125847e+02
   836.000   4.21298407e+02
   836.500   4.14652607e+02
   837.000   4.08182474e+02
   837.500   4.01882279e+02
   838.000   3.95746523e+02
   838.500   3.89769927e+02
   839.000   3.83947425e+02
   839.500   3.78274152e+02
   840.000   3.72745435e+02
   840.500   3.67356786e+02
   841.000   3.62103893e+02
   841.500   3.56982612e+02
   842.000   3.51988960e+02
   842.500   3.47119111e+02
   843.000   3.42369384e+02
   843.500   3.37736241e+02
   844.000   3.33216278e+02
   844.500   3.28806224e+02
   845.000   3.24502930e+02
   845.500   3.20303368e+02
   846.000   3.16204625e+02
   846.500   3.12203897e+02
   847.000   3.08298487e+02
   847.500   3.04485800e+02
   848.000   3.00763337e+02
   848.500   2.97128696e+02
   849.000   2.93579563e+02
   849.500   2.90113712e+02
   850.000   2.86729001e+02
   850.500   2.83423370e+02
   851.000   2.80194836e+02
   851.500   2.77041490e+02
   852.000   2.73961499e+02
   852.500   2.70953097e+02
   853.000   2.68014590e+02
   853.500   2.65144345e+02
   854.000   2.62340796e+02
   854.500   2.59602438e+02
   855.000   2.56927826e+02
   855.500   2.54315574e+02
   856.000   2.51764351e+02
   856.500   2.49272882e+02
   857.000   2.46839946e+02
   857.500   2.44464374e+02
   858.000   2.42145049e+02
   858.500   2.39880902e+02
   859.000   2.37670915e+02
   859.500   2.35514117e+02
   860.000   2.33409584e+02
   860.500   2.31356440e+02
   861.000   2.29353852e+02
   861.500   2.27401035e+02
   862.000   2.25497245e+02
   862.500   2.23641786e+02
   863.000   2.21834002e+02
   863.500   2.20073282e+02
   864.000   2.18359058e+02
   864.500   2.16690805e+02
   865.000   2.15068041e+02
   865.500   2.13490325e+02
   866.000   2.11957262e+02
   866.500   2.10468497e+02
   867.000   2.09023719e+02
   867.500   2.07622662e+02
   868.000   2.06265101e+02
   868.500   2.04950857e+02
   869.000   2.03679794e+02
   869.500   2.02451822e+02
   870.000   2.01266897e+02
   870.500   2.00125018e+02
   871.000   1.99026232e+02
   871.500   1.97970635e+02
   872.000   1.96958365e+02
   872.500   1.95989614e+02
   873.000   1.95064616e+02
   873.500   1.94183659e+02
   874.000   1.93347076e+02
   874.500   1.92555249e+02
   875.000   1.91808610e+02
   875.500   1.91107637e+02
   876.000   1.90452856e+02
   876.500   1.89844839e+02
   877.000   1.89284201e+02
   877.500   1.88771602e+02
   878.000   1.88307738e+02
   878.500   1.87893340e+02
   879.000   1.87529172e+02
   879.500   1.87216020e+02
   880.000   1.86954689e+02
   880.500   1.86745993e+02
   881.000   1.86590743e+02
   881.500   1.86489736e+02
   882.000   1.86443741e+02
   882.500   1.86453480e+02
   883.000   1.86519610e+02
   883.500   1.86642695e+02
   884.000   1.86823187e+02
   884.500   1.87061388e+02
   885.000   1.87357418e+02
   885.500   1.87711178e+02
   886.000   1.88122301e+02
   886.500   1.88590109e+02
   887.000   1.89113558e+02
   887.500   1.89691182e+02
   888.000   1.90321030e+02
   888.500   1.91000606e+02
   889.000   1.91726798e+02
   889.500   1.92495819e+02
   890.000   1.93303142e+02
   890.500   1.94143436e+02
   891.000   1.95010521e+02
   891.500   1.95897325e+02
   892.000   1.96795860e+02
   892.500   1.97697218e+02
   893.000   1.98591590e+02
   893.500   1.99468317e+02
   894.000   2.00315971e+02
   894.500   2.01122474e+02
   895.000   2.01875253e+02
   895.500   2.02561437e+02
   896.000   2.03168088e+02
   896.500   2.03682461e+02
   897.000   2.04092292e+02
   897.500   2.04386098e+02
   898.000   2.04553477e+02
   898.500   2.04585402e+02
   899.000   2.04474482e+02
   899.500   2.04215186e+02
   900.000   2.03804014e+02
   900.500   2.03239602e+02
   901.000   2.02522762e+02
   901.500   2.01656448e+02
   902.000   2.00645649e+02
   902.500   1.99497228e+02
   903.000   1.98219696e+02
   903.500   1.96822955e+02
   904.000   1.95318011e+02
   904.500   1.93716671e+02
   905.000   1.92031247e+02
   905.500   1.90274271e+02
   906.000   1.88458233e+02
   906.500   1.86595349e+02
   907.000   1.84697368e+02
   907.500   1.82775412e+02
   908.000   1.80839859e+02
   908.500   1.78900256e+02
   909.000   1.76965265e+02
   909.500   1.75042650e+02
   910.000   1.73139266e+02
   910.500   1.71261092e+02
   911.000   1.69413262e+02
   911.500   1.67600113e+02
   912.000   1.65825248e+02
   912.500   1.64091589e+02
   913.000   1.62401447e+02
   913.500   1.60756583e+02
   914.000   1.59158268e+02
   914.500   1.57607345e+02
   915.000   1.56104287e+02
   915.500   1.54649243e+02
   916.000   1.53242089e+02
   916.500   1.51882471e+02
   917.000   1.50569843e+02
   917.500   1.49303500e+02
   918.000   1.48082612e+02
   918.500   1.46906246e+02
   919.000   1.45773393e+02
   919.500   1.44682985e+02
   920.000   1.43633915e+02
   920.500   1.42625049e+02
   921.000   1.41655240e+02
   921.500   1.40723338e+02
   922.000   1.39828198e+02
   922.500   1.38968688e+02
   923.000   1.38143695e+02
   923.500   1.37352127e+02
   924.000   1.36592921e+02
   924.500   1.35865042e+02
   925.000   1.35167487e+02
   925.500   1.34499286e+02
   926.000   1.33859503e+02
   926.500   1.33247238e+02
   927.000   1.32661623e+02
   927.500   1.32101829e+02
   928.000   1.31567058e+02
   928.500   1.31056547e+02
   929.000   1.30569568e+02
   929.500   1.30105425e+02
   930.000   1.29663452e+02
   930.500   1.29243015e+02
   931.000   1.28843513e+02
   931.500   1.28464370e+02
   932.000   1.28105040e+02
   932.500   1.27765003e+02
   933.000   1.27443766e+02
   933.500   1.27140862e+02
   934.000   1.26855845e+02
   934.500   1.26588296e+02
   935.000   1.26337815e+02
   935.500   1.26104025e+02
   936.000   1.25886569e+02
   936.500   1.25685110e+02
   937.000   1.25499330e+02
   937.500   1.25328928e+02
   938.000   1.25173622e+02
   938.500   1.25033145e+02
   939.000   1.24907248e+02
   939.500   1.24795695e+02
   940.000   1.24698266e+02
   940.500   1.24614756e+02
   941.000   1.24544973e+02
   941.500   1.24488737e+02
   942.000   1.24445883e+02
   942.500   1.24416256e+02
   943.000   1.24399715e+02
   943.500   1.24396129e+02
   944.000   1.24405378e+02
   944.500   1.24427353e+02
   945.000   1.24461956e+02
   945.500   1.24509098e+02
   946.000   1.24568701e+02
   946.500   1.24640695e+02
   947.000   1.24725022e+02
   947.500   1.24821629e+02
   948.000   1.24930476e+02
   948.500   1.25051529e+02
   949.000   1.25184763e+02
   949.500   1.25330162e+02
   950.000   1.25487719e+02
   950.500   1.25657432e+02
   951.000   1.25839310e+02
   951.500   1.26033369e+02
   952.000   1.26239633e+02
   952.500   1.26458132e+02
   953.000   1.26688906e+02
   953.500   1.26932002e+02
   954.000   1.27187475e+02
   954.500   1.27455385e+02
   955.000   1.27735803e+02
   955.500   1.28028806e+02
   956.000   1.28334479e+02
   956.500   1.28652915e+02
   957.000   1.28984213e+02
   957.500   1.29328482e+02
   958.000   1.29685838e+02
   958.500   1.30056405e+02
   959.000   1.30440315e+02
   959.500   1.30837708e+02
   960.000   1.31248732e+02
   960.500   1.31673546e+02
   961.000   1.32112314e+02
   961.500   1.32565210e+02
   962.000   1.33032418e+02
   962.500   1.33514131e+02
   963.000   1.34010550e+02
   963.500   1.34521887e+02
   964.000   1.35048363e+02
   964.500   1.35590209e+02
   965.000   1.36147668e+02
   965.500   1.36720990e+02
   966.000   1.37310441e+02
   966.500   1.37916294e+02
   967.000   1.38538836e+02
   967.500   1.39178365e+02
   968.000   1.39835192e+02
   968.500   1.40509641e+02
   969.000   1.41202049e+02
   969.500   1.41912766e+02
   970.000   1.42642157e+02
   970.500   1.43390602e+02
   971.000   1.44158497e+02
   971.500   1.44946251e+02
   972.000   1.45754293e+02
   972.500   1.46583066e+02
   973.000   1.47433034e+02
   973.500   1.48304677e+02
   974.000   1.49198496e+02
   974.500   1.50115010e+02
   975.000   1.51054760e+02
   975.500   1.52018310e+02
   976.000   1.53006244e+02
   976.500   1.54019172e+02
   977.000   1.55057728e+02
   977.500   1.56122571e+02
   978.000   1.57214386e+02
   978.500   1.58333889e+02
   979.000   1.59481822e+02
   979.500   1.60658960e+02
   980.000   1.61866107e+02
   980.500   1.63104103e+02
   981.000   1.64373822e+02
   981.500   1.65676172e+02
   982.000   1.67012101e+02
   982.500   1.68382598e+02
   983.000   1.69788688e+02
   983.500   1.71231445e+02
   984.000   1.72711985e+02
   984.500   1.74231469e+02
   985.000   1.75791112e+02
   985.500   1.77392174e+02
   986.000   1.79035973e+02
   986.500   1.80723879e+02
   987.000   1.82457322e+02
   987.500   1.84237788e+02
   988.000   1.86066828e+02
   988.500   1.87946057e+02
   989.000   1.89877153e+02
   989.500   1.91861867e+02
   990.000   1.93902017e+02
   990.500   1.95999495e+02
   991.000   1.98156266e+02
   991.500   2.00374371e+02
   992.000   2.02655928e+02
   992.500   2.05003133e+02
   993.000   2.07418260e+02
   993.500   2.09903658e+02
   994.000   2.12461757e+02
   994.500   2.15095060e+02
   995.000   2.17806143e+02
   995.500   2.20597650e+02
   996.000   2.23472289e+02
   996.500   2.26432824e+02
   997.000   2.29482067e+02
   997.500   2.32622866e+02
   998.000   2.35858092e+02
   998.500   2.39190624e+02
   999.000   2.42623327e+02
   999.500   2.46159030e+02
  1000.000   2.49800497e+02
  1000.500   2.53550398e+02
  1001.000   2.57411266e+02
  1001.500   2.61385461e+02
  1002.000   2.65475117e+02
  1002.500   2.69682086e+02
  1003.000   2.74007879e+02
  1003.500   2.78453599e+02
  1004.000   2.83019862e+02
  1004.500   2.87706718e+02
  1005.000   2.92513570e+02
  1005.500   2.97439075e+02
  1006.000   3.02481060e+02
  1006.500   3.07636428e+02
  1007.000   3.12901065e+02
  1007.500   3.18269767e+02
  1008.000   3.23736164e+02
  1008.500   3.29292671e+02
  1009.000   3.34930459e+02
  1009.500   3.40639455e+02
  1010.000   3.46408384e+02
  1010.500   3.52224846e+02
  1011.000   3.58075451e+02
  1011.500   3.63945999e+02
  1012.000   3.69821727e+02
  1012.500   3.75687599e+02
  1013.000   3.81528662e+02
  1013.500   3.87330438e+02
  1014.000   3.93079353e+02
  1014.500   3.98763189e+02
  1015.000   4.04371534e+02
  1015.500   4.09896214e+02
  1016.000   4.15331686e+02
  1016.500   4.20675371e+02
  1017.000   4.25927904e+02
  1017.500   4.31093301e+02
  1018.000   4.36179012e+02
  1018.500   4.41195878e+02
  1019.000   4.46157984e+02
  1019.500   4.51082424e+02
  1020.000   4.55988986e+02
  1020.500   4.60899781e+02
  1021.000   4.65838839e+02
  1021.500   4.70831685e+02
  1022.000   4.75904917e+02
  1022.500   4.81085817e+02
  1023.000   4.86401988e+02
  1023.500   4.91881038e+02
  1024.000   4.97550327e+02
  1024.500   5.03436759e+02
  1025.000   5.09566636e+02
  1025.500   5.15965567e+02
  1026.000   5.22658421e+02
  1026.500   5.29669326e+02
  1027.000   5.37021703e+02
  1027.500   5.44738332e+02
  1028.000   5.52841438e+02
  1028.500   5.61352800e+02
  1029.000   5.70293863e+02
  1029.500   5.79685865e+02
  1030.000   5.89549967e+02
  1030.500   5.99907379e+02
  1031.000   6.10779487e+02
  1031.500   6.22187977e+02
  1032.000   6.34154948e+02
  1032.500   6.46703026e+02
  1033.000   6.59855465e+02
  1033.500   6.73636237e+02
  1034.000   6.88070122e+02
  1034.500   7.03182778e+02
  1035.000   7.19000807e+02
  1035.500   7.35551808e+02
  1036.000   7.52864413e+02
  1036.500   7.70968318e+02
  1037.000   7.89894290e+02
  1037.500   8.09674161e+02
  1038.000   8.30340801e+02
  1038.500   8.51928070e+02
  1039.000   8.74470741e+02
  1039.500   8.98004397e+02
  1040.000   9.22565289e+02
  1040.500   9.48190162e+02
  1041.000   9.74916025e+02
  1041.500   1.00277988e+03
  1042.000   1.03181840e+03
  1042.500   1.06206749e+03
  1043.000   1.09356185e+03
  1043.500   1.12633439e+03
  1044.000   1.16041559e+03
  1044.500   1.19583270e+03
  1045.000   1.23260890e+03
  1045.500   1.27076227e+03
  1046.000   1.31030465e+03
  1046.500   1.35124035e+03
  1047.000   1.39356472e+03
  1047.500   1.43726259e+03
  1048.000   1.48230648e+03
  1048.500   1.52865477e+03
  1049.000   1.57624970e+03
  1049.500   1.62501527e+03
  1050.000   1.67485512e+03
  1050.500   1.72565037e+03
  1051.000   1.77725754e+03
  1051.500   1.82950666e+03
  1052.000   1.88219957e+03
  1052.500   1.93510866e+03
  1053.000   1.98797608e+03
  1053.500   2.04051366e+03
  1054.000   2.09240360e+03
  1054.500   2.14330011e+03
  1055.000   2.19283223e+03
  1055.500   2.24060772e+03
  1056.000   2.28621831e+03
  1056.500   2.32924612e+03
  1057.000   2.36927135e+03
  1057.500   2.40588088e+03
  1058.000   2.43867775e+03
  1058.500   2.46729100e+03
  1059.000   2.49138565e+03
  1059.500   2.51067214e+03
  1060.000   2.52491500e+03
  1060.500   2.53394014e+03
  1061.000   2.53764028e+03
  1061.500   2.53597849e+03
  1062.000   2.52898922e+03
  1062.500   2.51677714e+03
  1063.000   2.49951364e+03
  1063.500   2.47743124e+03
  1064.000   2.45081628e+03
  1064.500   2.42000035e+03
  1065.000   2.38535074e+03
  1065.500   2.34726063e+03
  1066.000   2.30613923e+03
  1066.500   2.26240248e+03
  1067.000   2.21646449e+03
  1067.500   2.16872994e+03
  1068.000   2.11958778e+03
  1068.500   2.06940606e+03
  1069.000   2.01852805e+03
  1069.500   1.96726949e+03
  1070.000   1.91591699e+03
  1070.500   1.86472732e+03
  1071.000   1.81392747e+03
  1071.500   1.76371544e+03
  1072.000   1.71426147e+03
  1072.500   1.66570967e+03
  1073.000   1.61817988e+03
  1073.500   1.57176972e+03
  1074.000   1.52655665e+03
  1074.500   1.48260011e+03
  1075.000   1.43994351e+03
  1075.500   1.39861623e+03
  1076.000   1.35863543e+03
  1076.500   1.32000774e+03
  1077.000   1.28273083e+03
  1077.500   1.24679484e+03
  1078.000   1.21218361e+03
  1078.500   1.17887583e+03
  1079.000   1.14684602e+03
  1079.500   1.11606542e+03
  1080.000   1.08650274e+03
  1080.500   1.05812480e+03
  1081.000   1.03089713e+03
  1081.500   1.00478440e+03
  1082.000   9.79750857e+02
  1082.500   9.55760677e+02
  1083.000   9.32778216e+02
  1083.500   9.10768259e+02
  1084.000   8.89696217e+02
  1084.500   8.69528267e+02
  1085.000   8.50231485e+02
  1085.500   8.31773935e+02
  1086.000   8.14124737e+02
  1086.500   7.97254125e+02
  1087.000   7.81133479e+02
  1087.500   7.65735344e+02
  1088.000   7.51033442e+02
  1088.500   7.37002674e+02
  1089.000   7.23619109e+02
  1089.500   7.10859972e+02
  1090.000   6.98703626e+02
  1090.500   6.87129548e+02
  1091.000   6.76118303e+02
  1091.500   6.65651518e+02
  1092.000   6.55711848e+02
  1092.500   6.46282946e+02
  1093.000   6.37349430e+02
  1093.500   6.28896849e+02
  1094.000   6.20911650e+02
  1094.500   6.13381138e+02
  1095.000   6.06293446e+02
  1095.500   5.99637493e+02
  1096.000   5.93402951e+02
  1096.500   5.87580205e+02
  1097.000   5.82160316e+02
  1097.500   5.77134978e+02
  1098.000   5.72496481e+02
  1098.500   5.68237665e+02
  1099.000   5.64351882e+02
  1099.500   5.60832945e+02
  1100.000   5.57675090e+02
  1100.500   5.54872923e+02
  1101.000   5.52421377e+02
  1101.500   5.50315662e+02
  1102.000   5.48551223e+02
  1102.500   5.47123692e+02
  1103.000   5.46028846e+02
  1103.500   5.45262571e+02
  1104.000   5.44820826e+02
  1104.500   5.44699622e+02
  1105.000   5.44895000e+02
  1105.500   5.45403027e+02
  1106.000   5.46219801e+02
  1106.500   5.47341464e+02
  1107.000   5.48764233e+02
  1107.500   5.50484437e+02
  1108.000   5.52498568e+02
  1108.500   5.54803331e+02
  1109.000   5.57395702e+02
  1109.500   5.60272976e+02
  1110.000   5.63432801e+02
  1110.500   5.66873196e+02
  1111.000   5.70592538e+02
  1111.500   5.74589505e+02
  1112.000   5.78862982e+02
  1112.500   5.83411905e+02
  1113.000   5.88235053e+02
  1113.500   5.93330780e+02
  1114.000   5.98696678e+02
  1114.500   6.04329201e+02
  1115.000   6.10223218e+02
  1115.500   6.16371537e+02
  1116.000   6.22764391e+02
  1116.500   6.29388914e+02
  1117.000   6.36228606e+02
  1117.500   6.43262817e+02
  1118.000   6.50466274e+02
  1118.500   6.57808650e+02
  1119.000   6.65254236e+02
  1119.500   6.72761695e+02
  1120.000   6.80283971e+02
  1120.500   6.87768342e+02
  1121.000   6.95156666e+02
  1121.500   7.02385832e+02
  1122.000   7.09388435e+02
  1122.500   7.16093682e+02
  1123.000   7.22428540e+02
  1123.500   7.28319099e+02
  1124.000   7.33692127e+02
  1124.500   7.38476775e+02
  1125.000   7.42606382e+02
  1125.500   7.46020285e+02
  1126.000   7.48665582e+02
  1126.500   7.50498735e+02
  1127.000   7.51486953e+02
  1127.500   7.51609256e+02
  1128.000   7.50857179e+02
  1128.500   7.49235055e+02
  1129.000   7.46759888e+02
  1129.500   7.43460797e+02
  1130.000   7.39378082e+02
  1130.500   7.34561976e+02
  1131.000   7.29071130e+02
  1131.500   7.22970942e+02
  1132.000   7.16331793e+02
  1132.500   7.09227291e+02
  1133.000   7.01732579e+02
  1133.500   6.93922778e+02
  1134.000   6.85871609e+02
  1134.500   6.77650218e+02
  1135.000   6.69326227e+02
  1135.500   6.60963003e+02
  1136.000   6.52619146e+02
  1136.500   6.44348169e+02
  1137.000   6.36198352e+02
  1137.500   6.28212749e+02
  1138.000   6.20429306e+02
  1138.500   6.12881083e+02
  1139.000   6.05596540e+02
  1139.500   5.98599877e+02
  1140.000   5.91911396e+02
  1140.500   5.85547891e+02
  1141.000   5.79523022e+02
  1141.500   5.73847699e+02
  1142.000   5.68530435e+02
  1142.500   5.63577693e+02
  1143.000   5.58994200e+02
  1143.500   5.54783236e+02
  1144.000   5.50946905e+02
  1144.500   5.47486368e+02
  1145.000   5.44402063e+02
  1145.500   5.41693893e+02
  1146.000   5.39361394e+02
  1146.500   5.37403883e+02
  1147.000   5.35820588e+02
  1147.500   5.34610758e+02
  1148.000   5.33773761e+02
  1148.500   5.33309164e+02
  1149.000   5.33216803e+02
  1149.500   5.33496846e+02
  1150.000   5.34149833e+02
  1150.500   5.35176724e+02
  1151.000   5.36578921e+02
  1151.500   5.38358298e+02
  1152.000   5.40517211e+02
  1152.500   5.43058507e+02
  1153.000   5.45985524e+02
  1153.500   5.49302087e+02
  1154.000   5.53012488e+02
  1154.500   5.57121468e+02
  1155.000   5.61634182e+02
  1155.500   5.66556157e+02
  1156.000   5.71893245e+02
  1156.500   5.77651553e+02
  1157.000   5.83837371e+02
  1157.500   5.90457080e+02
  1158.000   5.97517042e+02
  1158.500   6.05023481e+02
  1159.000   6.12982334e+02
  1159.500   6.21399093e+02
  1160.000   6.30278614e+02
  1160.500   6.39624917e+02
  1161.000   6.49440944e+02
  1161.500   6.59728315e+02
  1162.000   6.70487046e+02
  1162.500   6.81715254e+02
  1163.000   6.93408844e+02
  1163.500   7.05561184e+02
  1164.000   7.18162778e+02
  1164.500   7.31200940e+02
  1165.000   7.44659491e+02
  1165.500   7.58518479e+02
  1166.000   7.72753954e+02
  1166.500   7.87337808e+02
  1167.000   8.02237702e+02
  1167.500   8.17417101e+02
  1168.000   8.32835441e+02
  1168.500   8.48448441e+02
  1169.000   8.64208582e+02
  1169.500   8.80065750e+02
  1170.000   8.95968051e+02
  1170.500   9.11862779e+02
  1171.000   9.27697522e+02
  1171.500   9.43421355e+02
  1172.000   9.58986078e+02
  1172.500   9.74347433e+02
  1173.000   9.89466232e+02
  1173.500   1.00430932e+03
  1174.000   1.01885028e+03
  1174.500   1.03306990e+03
  1175.000   1.04695615e+03
  1175.500   1.06050396e+03
  1176.000   1.07371439e+03
  1176.500   1.08659361e+03
  1177.000   1.09915135e+03
  1177.500   1.11139922e+03
  1178.000   1.12334870e+03
  1178.500   1.13500906e+03
  1179.000   1.14638527e+03
  1179.500   1.15747591e+03
  1180.000   1.16827140e+03
  1180.500   1.17875233e+03
  1181.000   1.18888826e+03
  1181.500   1.19863693e+03
  1182.000   1.20794392e+03
  1182.500   1.21674289e+03
  1183.000   1.22495635e+03
  1183.500   1.23249702e+03
  1184.000   1.23926969e+03
  1184.500   1.24517368e+03
  1185.000   1.25010567e+03
  1185.500   1.25396287e+03
  1186.000   1.25664645e+03
  1186.500   1.25806503e+03
  1187.000   1.25813807e+03
  1187.500   1.25679903e+03
  1188.000   1.25399810e+03
  1188.500   1.24970439e+03
  1189.000   1.24390743e+03
  1189.500   1.23661793e+03
  1190.000   1.22786775e+03
  1190.500   1.21770915e+03
  1191.000   1.20621323e+03
  1191.500   1.19346793e+03
  1192.000   1.17957541e+03
  1192.500   1.16464919e+03
  1193.000   1.14881111e+03
  1193.500   1.13218827e+03
  1194.000   1.11491008e+03
  1194.500   1.09710553e+03
  1195.000   1.07890081e+03
  1195.500   1.06041719e+03
  1196.000   1.04176945e+03
  1196.500   1.02306450e+03
  1197.000   1.00440058e+03
  1197.500   9.85866648e+02
  1198.000   9.67542167e+02
  1198.500   9.49497104e+02
  1199.000   9.31792166e+02
  1199.500   9.14479195e+02
  1200.000   8.97601679e+02
  1200.500   8.81195361e+02
  1201.000   8.65288886e+02
  1201.500   8.49904483e+02
  1202.000   8.35058639e+02
  1202.500   8.20762763e+02
  1203.000   8.07023822e+02
  1203.500   7.93844934e+02
  1204.000   7.81225920e+02
  1204.500   7.69163816e+02
  1205.000   7.57653325e+02
  1205.500   7.46687235e+02
  1206.000   7.36256780e+02
  1206.500   7.26351967e+02
  1207.000   7.16961856e+02
  1207.500   7.08074809e+02
  1208.000   6.99678697e+02
  1208.500   6.91761089e+02
  1209.000   6.84309399e+02
  1209.500   6.77311024e+02
  1210.000   6.70753445e+02
  1210.500   6.64624326e+02
  1211.000   6.58911581e+02
  1211.500   6.53603441e+02
  1212.000   6.48688496e+02
  1212.500   6.44155740e+02
  1213.000   6.39994593e+02
  1213.500   6.36194928e+02
  1214.000   6.32747085e+02
  1214.500   6.29641882e+02
  1215.000   6.26870618e+02
  1215.500   6.24425081e+02
  1216.000   6.22297544e+02
  1216.500   6.20480762e+02
  1217.000   6.18967970e+02
  1217.500   6.17752877e+02
  1218.000   6.16829658e+02
  1218.500   6.16192947e+02
  1219.000   6.15837829e+02
  1219.500   6.15759834e+02
  1220.000   6.15954926e+02
  1220.500   6.16419498e+02
  1221.000   6.17150361e+02
  1221.500   6.18144739e+02
  1222.000   6.19400263e+02
  1222.500   6.20914960e+02
  1223.000   6.22687254e+02
  1223.500   6.24715954e+02
  1224.000   6.27000255e+02
  1224.500   6.29539729e+02
  1225.000   6.32334328e+02
  1225.500   6.35384376e+02
  1226.000   6.38690572e+02
  1226.500   6.42253983e+02
  1227.000   6.46076054e+02
  1227.500   6.50158598e+02
  1228.000   6.54503807e+02
  1228.500   6.59114247e+02
  1229.000   6.63992867e+02
  1229.500   6.69143003e+02
  1230.000   6.74568379e+02
  1230.500   6.80273119e+02
  1231.000   6.86261750e+02
  1231.500   6.92539212e+02
  1232.000   6.99110870e+02
  1232.500   7.05982517e+02
  1233.000   7.13160396e+02
  1233.500   7.20651202e+02
  1234.000   7.28462103e+02
  1234.500   7.36600752e+02
  1235.000   7.45075305e+02
  1235.500   7.53894436e+02
  1236.000   7.63067358e+02
  1236.500   7.72603843e+02
  1237.000   7.82514241e+02
  1237.500   7.92809507e+02
  1238.000   8.03501226e+02
  1238.500   8.14601633e+02
  1239.000   8.26123651e+02
  1239.500   8.38080910e+02
  1240.000   8.50487790e+02
  1240.500   8.63359443e+02
  1241.000   8.76711839e+02
  1241.500   8.90561796e+02
  1242.000   9.04927025e+02
  1242.500   9.19826168e+02
  1243.000   9.35278844e+02
  1243.500   9.51305696e+02
  1244.000   9.67928438e+02
  1244.500   9.85169910e+02
  1245.000   1.00305413e+03
  1245.500   1.02160634e+03
  1246.000   1.04085309e+03
  1246.500   1.06082226e+03
  1247.000   1.08154318e+03
  1247.500   1.10304663e+03
  1248.000   1.12536496e+03
  1248.500   1.14853214e+03
  1249.000   1.17258381e+03
  1249.500   1.19755740e+03
  1250.000   1.22349218e+03
  1250.500   1.25042931e+03
  1251.000   1.27841195e+03
  1251.500   1.30748533e+03
  1252.000   1.33769680e+03
  1252.500   1.36909591e+03
  1253.000   1.40173448e+03
  1253.500   1.43566666e+03
  1254.000   1.47094895e+03
  1254.500   1.50764028e+03
  1255.000   1.54580200e+03
  1255.500   1.58549790e+03
  1256.000   1.62679423e+03
  1256.500   1.66975962e+03
  1257.000   1.71446501e+03
  1257.500   1.76098361e+03
  1258.000   1.80939067e+03
  1258.500   1.85976334e+03
  1259.000   1.91218042e+03
  1259.500   1.96672198e+03
  1260.000   2.02346900e+03
  1260.500   2.08250284e+03
  1261.000   2.14390464e+03
  1261.500   2.20775457e+03
  1262.000   2.27413095e+03
  1262.500   2.34310921e+03
  1263.000   2.41476065e+03
  1263.500   2.48915100e+03
  1264.000   2.56633879e+03
  1264.500   2.64637340e+03
  1265.000   2.72929288e+03
  1265.500   2.81512151e+03
  1266.000   2.90386700e+03
  1266.500   2.99551739e+03
  1267.000   3.09003764e+03
  1267.500   3.18736594e+03
  1268.000   3.28740965e+03
  1268.500   3.39004108e+03
  1269.000   3.49509302e+03
  1269.500   3.60235423e+03
  1270.000   3.71156491e+03
  1270.500   3.82241235e+03
  1271.000   3.93452695e+03
  1271.500   4.04747883e+03
  1272.000   4.16077528e+03
  1272.500   4.27385939e+03
  1273.000   4.38611010e+03
  1273.500   4.49684400e+03
  1274.000   4.60531932e+03
  1274.500   4.71074218e+03
  1275.000   4.81227544e+03
  1275.500   4.90905020e+03
  1276.000   5.00017997e+03
  1276.500   5.08477722e+03
  1277.000   5.16197210e+03
  1277.500   5.23093260e+03
  1278.000   5.29088561e+03
  1278.500   5.34113781e+03
  1279.000   5.38109556e+03
  1279.500   5.41028275e+03
  1280.000   5.42835556e+03
  1280.500   5.43511338e+03
  1281.000   5.43050525e+03
  1281.500   5.41463131e+03
  1282.000   5.38773935e+03
  1282.500   5.35021654e+03
  1283.000   5.30257688e+03
  1283.500   5.24544519e+03
  1284.000   5.17953835e+03
  1284.500   5.10564504e+03
  1285.000   5.02460472e+03
  1285.500   4.93728700e+03
  1286.000   4.84457210e+03
  1286.500   4.74733307e+03
  1287.000   4.64642027e+03
  1287.500   4.54264839e+03
  1288.000   4.43678609e+03
  1288.500   4.32954828e+03
  1289.000   4.22159086e+03
  1289.500   4.11350769e+03
  1290.000   4.00582951e+03
  1290.500   3.89902446e+03
  1291.000   3.79349999e+03
  1291.500   3.68960566e+03
  1292.000   3.58763676e+03
  1292.500   3.48783837e+03
  1293.000   3.39040965e+03
  1293.500   3.29550832e+03
  1294.000   3.20325500e+03
  1294.500   3.11373750e+03
  1295.000   3.02701482e+03
  1295.500   2.94312094e+03
  1296.000   2.86206827e+03
  1296.500   2.78385087e+03
  1297.000   2.70844729e+03
  1297.500   2.63582311e+03
  1298.000   2.56593329e+03
  1298.500   2.49872411e+03
  1299.000   2.43413497e+03
  1299.500   2.37209994e+03
  1300.000   2.31254906e+03
  1300.500   2.25540951e+03
  1301.000   2.20060657e+03
  1301.500   2.14806447e+03
  1302.000   2.09770707e+03
  1302.500   2.04945847e+03
  1303.000   2.00324349e+03
  1303.500   1.95898805e+03
  1304.000   1.91661952e+03
  1304.500   1.87606695e+03
  1305.000   1.83726130e+03
  1305.500   1.80013557e+03
  1306.000   1.76462492e+03
  1306.500   1.73066674e+03
  1307.000   1.69820071e+03
  1307.500   1.66716882e+03
  1308.000   1.63751535e+03
  1308.500   1.60918690e+03
  1309.000   1.58213231e+03
  1309.500   1.55630267e+03
  1310.000   1.53165123e+03
  1310.500   1.50813340e+03
  1311.000   1.48570663e+03
  1311.500   1.46433038e+03
  1312.000   1.44396605e+03
  1312.500   1.42457694e+03
  1313.000   1.40612813e+03
  1313.500   1.38858646e+03
  1314.000   1.37192043e+03
  1314.500   1.35610016e+03
  1315.000   1.34109732e+03
  1315.500   1.32688507e+03
  1316.000   1.31343796e+03
  1316.500   1.30073196e+03
  1317.000   1.28874430e+03
  1317.500   1.27745350e+03
  1318.000   1.26683928e+03
  1318.500   1.25688250e+03
  1319.000   1.24756515e+03
  1319.500   1.23887027e+03
  1320.000   1.23078193e+03
  1320.500   1.22328519e+03
  1321.000   1.21636604e+03
  1321.500   1.21001140e+03
  1322.000   1.20420904e+03
  1322.500   1.19894759e+03
  1323.000   1.19421651e+03
  1323.500   1.19000603e+03
  1324.000   1.18630713e+03
  1324.500   1.18311157e+03
  1325.000   1.18041179e+03
  1325.500   1.17820094e+03
  1326.000   1.17647284e+03
  1326.500   1.17522199e+03
  1327.000   1.17444351e+03
  1327.500   1.17413316e+03
  1328.000   1.17428732e+03
  1328.500   1.17490296e+03
  1329.000   1.17597766e+03
  1329.500   1.17750958e+03
  1330.000   1.17949745e+03
  1330.500   1.18194058e+03
  1331.000   1.18483882e+03
  1331.500   1.18819260e+03
  1332.000   1.19200289e+03
  1332.500   1.19627120e+03
  1333.000   1.20099960e+03
  1333.500   1.20619070e+03
  1334.000   1.21184762e+03
  1334.500   1.21797405e+03
  1335.000   1.22457419e+03
  1335.500   1.23165278e+03
  1336.000   1.23921508e+03
  1336.500   1.24726688e+03
  1337.000   1.25581448e+03
  1337.500   1.26486472e+03
  1338.000   1.27442493e+03
  1338.500   1.28450294e+03
  1339.000   1.29510708e+03
  1339.500   1.30624619e+03
  1340.000   1.31792955e+03
  1340.500   1.33016694e+03
  1341.000   1.34296856e+03
  1341.500   1.35634506e+03
  1342.000   1.37030754e+03
  1342.500   1.38486746e+03
  1343.000   1.40003672e+03
  1343.500   1.41582756e+03
  1344.000   1.43225262e+03
  1344.500   1.44932491e+03
  1345.000   1.46705781e+03
  1345.500   1.48546506e+03
  1346.000   1.50456083e+03
  1346.500   1.52435975e+03
  1347.000   1.54487694e+03
  1347.500   1.56612810e+03
  1348.000   1.58812963e+03
  1348.500   1.61089874e+03
  1349.000   1.63445361e+03
  1349.500   1.65881359e+03
  1350.000   1.68399938e+03
  1350.500   1.71003328e+03
  1351.000   1.73693943e+03
  1351.500   1.76474408e+03
  1352.000   1.79347588e+03
  1352.500   1.82316610e+03
  1353.000   1.85384891e+03
  1353.500   1.88556160e+03
  1354.000   1.91834478e+03
  1354.500   1.95224257e+03
  1355.000   1.98730267e+03
  1355.500   2.02357648e+03
  1356.000   2.06111914e+03
  1356.500   2.09998951e+03
  1357.000   2.14025018e+03
  1357.500   2.18196737e+03
  1358.000   2.22521093e+03
  1358.500   2.27005419e+03
  1359.000   2.31657397e+03
  1359.500   2.36485045e+03
  1360.000   2.41496716e+03
  1360.500   2.46701093e+03
  1361.000   2.52107190e+03
  1361.500   2.57724348e+03
  1362.000   2.63562237e+03
  1362.500   2.69630861e+03
  1363.000   2.75940559e+03
  1363.500   2.82502005e+03
  1364.000   2.89326211e+03
  1364.500   2.96424527e+03
  1365.000   3.03808633e+03
  1365.500   3.11490532e+03
  1366.000   3.19482536e+03
  1366.500   3.27797245e+03
  1367.000   3.36447517e+03
  1367.500   3.45446430e+03
  1368.000   3.54807233e+03
  1368.500   3.64543276e+03
  1369.000   3.74667939e+03
  1369.500   3.85194528e+03
  1370.000   3.96136159e+03
  1370.500   4.07505619e+03
  1371.000   4.19315196e+03
  1371.500   4.31576487e+03
  1372.000   4.44300166e+03
  1372.500   4.57495723e+03
  1373.000   4.71171165e+03
  1373.500   4.85332670e+03
  1374.000   4.99984204e+03
  1374.500   5.15127096e+03
  1375.000   5.30759557e+03
  1375.500   5.46876172e+03
  1376.000   5.63467339e+03
  1376.500   5.80518683e+03
  1377.000   5.98010438e+03
  1377.500   6.15916824e+03
  1378.000   6.34205423e+03
  1378.500   6.52836587e+03
  1379.000   6.71762891e+03
  1379.500   6.90928685e+03
  1380.000   7.10269754e+03
  1380.500   7.29713152e+03
  1381.000   7.49177244e+03
  1381.500   7.68571991e+03
  1382.000   7.87799543e+03
  1382.500   8.06755159e+03
  1383.000   8.25328485e+03
  1383.500   8.43405209e+03
  1384.000   8.60869080e+03
  1384.500   8.77604270e+03
  1385.000   8.93498014e+03
  1385.500   9.08443461e+03
  1386.000   9.22342622e+03
  1386.500   9.35109295e+03
  1387.000   9.46671826e+03
  1387.500   9.56975564e+03
  1388.000   9.65984874e+03
  1388.500   9.73684594e+03
  1389.000   9.80080841e+03
  1389.500   9.85201119e+03
  1390.000   9.89093716e+03
  1390.500   9.91826419e+03
  1391.000   9.93484625e+03
  1391.500   9.94168947e+03
  1392.000   9.93992437e+03
  1392.500   9.93077571e+03
  1393.000   9.91553123e+03
  1393.500   9.89551069e+03
  1394.000   9.87203612e+03
  1394.500   9.84640433e+03
  1395.000   9.81986215e+03
  1395.500   9.79358484e+03
  1396.000   9.76865775e+03
  1396.500   9.74606116e+03
  1397.000   9.72665814e+03
  1397.500   9.71118502e+03
  1398.000   9.70024413e+03
  1398.500   9.69429854e+03
  1399.000   9.69366821e+03
  1399.500   9.69852750e+03
  1400.000   9.70890374e+03
  1400.500   9.72467663e+03
  1401.000   9.74557862e+03
  1401.500   9.77119636e+03
  1402.000   9.80097319e+03
  1402.500   9.83421328e+03
  1403.000   9.87008751e+03
  1403.500   9.90764161e+03
  1404.000   9.94580689e+03
  1404.500   9.98341403e+03
  1405.000   1.00192101e+04
  1405.500   1.00518790e+04
  1406.000   1.00800655e+04
  1406.500   1.01024020e+04
  1407.000   1.01175384e+04
  1407.500   1.01241734e+04
  1408.000   1.01210872e+04
  1408.500   1.01071731e+04
  1409.000   1.00814678e+04
  1409.500   1.00431781e+04
  1410.000   9.99170335e+03
  1410.500   9.92665178e+03
  1411.000   9.84785021e+03
  1411.500   9.75534655e+03
  1412.000   9.64940498e+03
  1412.500   9.53049407e+03
  1413.000   9.39926870e+03
  1413.500   9.25654683e+03
  1414.000   9.10328239e+03
  1414.500   8.94053590e+03
  1415.000   8.76944399e+03
  1415.500   8.59118957e+03
  1416.000   8.40697342e+03
  1416.500   8.21798850e+03
  1417.000   8.02539736e+03
  1417.500   7.83031337e+03
  1418.000   7.63378557e+03
  1418.500   7.43678748e+03
  1419.000   7.24020937e+03
  1419.500   7.04485373e+03
  1420.000   6.85143364e+03
  1420.500   6.66057340e+03
  1421.000   6.47281115e+03
  1421.500   6.28860288e+03
  1422.000   6.10832750e+03
  1422.500   5.93229273e+03
  1423.000   5.76074124e+03
  1423.500   5.59385706e+03
  1424.000   5.43177190e+03
  1424.500   5.27457134e+03
  1425.000   5.12230066e+03
  1425.500   4.97497033e+03
  1426.000   4.83256106e+03
  1426.500   4.69502847e+03
  1427.000   4.56230721e+03
  1427.500   4.43431473e+03
  1428.000   4.31095458e+03
  1428.500   4.19211934e+03
  1429.000   4.07769315e+03
  1429.500   3.96755390e+03
  1430.000   3.86157516e+03
  1430.500   3.75962777e+03
  1431.000   3.66158123e+03
  1431.500   3.56730485e+03
  1432.000   3.47666869e+03
  1432.500   3.38954437e+03
  1433.000   3.30580570e+03
  1433.500   3.22532920e+03
  1434.000   3.14799452e+03
  1434.500   3.07368473e+03
  1435.000   3.00228656e+03
  1435.500   2.93369056e+03
  1436.000   2.86779121e+03
  1436.500   2.80448699e+03
  1437.000   2.74368035e+03
  1437.500   2.68527777e+03
  1438.000   2.62918962e+03
  1438.500   2.57533016e+03
  1439.000   2.52361743e+03
  1439.500   2.47397313e+03
  1440.000   2.42632251e+03
  1440.500   2.38059424e+03
  1441.000   2.33672027e+03
  1441.500   2.29463567e+03
  1442.000   2.25427848e+03
  1442.500   2.21558953e+03
  1443.000   2.17851231e+03
  1443.500   2.14299276e+03
  1444.000   2.10897910e+03
  1444.500   2.07642164e+03
  1445.000   2.04527262e+03
  1445.500   2.01548599e+03
  1446.000   1.98701726e+03
  1446.500   1.95982327e+03
  1447.000   1.93386205e+03
  1447.500   1.90909263e+03
  1448.000   1.88547489e+03
  1448.500   1.86296940e+03
  1449.000   1.84153732e+03
  1449.500   1.82114030e+03
  1450.000   1.80174044e+03
  1450.500   1.78330025e+03
  1451.000   1.76578271e+03
  1451.500   1.74915138e+03
  1452.000   1.73337048e+03
  1452.500   1.71840521e+03
  1453.000   1.70422192e+03
  1453.500   1.69078850e+03
  1454.000   1.67807473e+03
  1454.500   1.66605271e+03
  1455.000   1.65469729e+03
  1455.500   1.64398648e+03
  1456.000   1.63390188e+03
  1456.500   1.62442905e+03
  1457.000   1.61555781e+03
  1457.500   1.60728249e+03
  1458.000   1.59960201e+03
  1458.500   1.59251996e+03
  1459.000   1.58604449e+03
  1459.500   1.58018813e+03
  1460.000   1.57496753e+03
  1460.500   1.57040313e+03
  1461.000   1.56651871e+03
  1461.500   1.56334099e+03
  1462.000   1.56089919e+03
  1462.500   1.55922452e+03
  1463.000   1.55834981e+03
  1463.500   1.55830908e+03
  1464.000   1.55913720e+03
  1464.500   1.56086956e+03
  1465.000   1.56354181e+03
  1465.500   1.56718965e+03
  1466.000   1.57184862e+03
  1466.500   1.57755392e+03
  1467.000   1.58434031e+03
  1467.500   1.59224196e+03
  1468.000   1.60129225e+03
  1468.500   1.61152370e+03
  1469.000   1.62296769e+03
  1469.500   1.63565429e+03
  1470.000   1.64961194e+03
  1470.500   1.66486714e+03
  1471.000   1.68144398e+03
  1471.500   1.69936367e+03
  1472.000   1.71864390e+03
  1472.500   1.73929817e+03
  1473.000   1.76133492e+03
  1473.500   1.78475661e+03
  1474.000   1.80955863e+03
  1474.500   1.83572810e+03
  1475.000   1.86324249e+03
  1475.500   1.89206820e+03
  1476.000   1.92215898e+03
  1476.500   1.95345418e+03
  1477.000   1.98587709e+03
  1477.500   2.01933311e+03
  1478.000   2.05370801e+03
  1478.500   2.08886624e+03
  1479.000   2.12464946e+03
  1479.500   2.16087524e+03
  1480.000   2.19733625e+03
  1480.500   2.23379979e+03
  1481.000   2.27000807e+03
  1481.500   2.30567913e+03
  1482.000   2.34050867e+03
  1482.500   2.37417282e+03
  1483.000   2.40633192e+03
  1483.500   2.43663543e+03
  1484.000   2.46472776e+03
  1484.500   2.49025512e+03
  1485.000   2.51287311e+03
  1485.500   2.53225484e+03
  1486.000   2.54809927e+03
  1486.500   2.56013944e+03
  1487.000   2.56815013e+03
  1487.500   2.57195465e+03
  1488.000   2.57143024e+03
  1488.500   2.56651196e+03
  1489.000   2.55719466e+03
  1489.500   2.54353302e+03
  1490.000   2.52563964e+03
  1490.500   2.50368120e+03
  1491.000   2.47787317e+03
  1491.500   2.44847300e+03
  1492.000   2.41577256e+03
  1492.500   2.38008996e+03
  1493.000   2.34176121e+03
  1493.500   2.30113214e+03
  1494.000   2.25855080e+03
  1494.500   2.21436066e+03
  1495.000   2.16889470e+03
  1495.500   2.12247055e+03
  1496.000   2.07538664e+03
  1496.500   2.02791940e+03
  1497.000   1.98032142e+03
  1497.500   1.93282045e+03
  1498.000   1.88561913e+03
  1498.500   1.83889536e+03
  1499.000   1.79280310e+03
  1499.500   1.74747366e+03
  1500.000   1.70301709e+03
  1500.500   1.65952391e+03
  1501.000   1.61706679e+03
  1501.500   1.57570232e+03
  1502.000   1.53547283e+03
  1502.500   1.49640798e+03
  1503.000   1.45852642e+03
  1503.500   1.42183727e+03
  1504.000   1.38634148e+03
  1504.500   1.35203310e+03
  1505.000   1.31890041e+03
  1505.500   1.28692689e+03
  1506.000   1.25609217e+03
  1506.500   1.22637278e+03
  1507.000   1.19774284e+03
  1507.500   1.17017466e+03
  1508.000   1.14363923e+03
  1508.500   1.11810668e+03
  1509.000   1.09354665e+03
  1509.500   1.06992857e+03
  1510.000   1.04722192e+03
  1510.500   1.02539646e+03
  1511.000   1.00442239e+03
  1511.500   9.84270471e+02
  1512.000   9.64912134e+02
  1512.500   9.46319552e+02
  1513.000   9.28465692e+02
  1513.500   9.11324343e+02
  1514.000   8.94870124e+02
  1514.500   8.79078480e+02
  1515.000   8.63925663e+02
  1515.500   8.49388692e+02
  1516.000   8.35445314e+02
  1516.500   8.22073947e+02
  1517.000   8.09253608e+02
  1517.500   7.96963844e+02
  1518.000   7.85184646e+02
  1518.500   7.73896361e+02
  1519.000   7.63079596e+02
  1519.500   7.52715116e+02
  1520.000   7.42783744e+02
  1520.500   7.33266260e+02
  1521.000   7.24143293e+02
  1521.500   7.15395233e+02
  1522.000   7.07002141e+02
  1522.500   6.98943672e+02
  1523.000   6.91199020e+02
  1523.500   6.83746881e+02
  1524.000   6.76565440e+02
  1524.500   6.69632394e+02
  1525.000   6.62925004e+02
  1525.500   6.56420186e+02
  1526.000   6.50094641e+02
  1526.500   6.43925015e+02
  1527.000   6.37888111e+02
  1527.500   6.31961111e+02
  1528.000   6.26121836e+02
  1528.500   6.20349010e+02
  1529.000   6.14622539e+02
  1529.500   6.08923769e+02
  1530.000   6.03235733e+02
  1530.500   5.97543363e+02
  1531.000   5.91833666e+02
  1531.500   5.86095848e+02
  1532.000   5.80321395e+02
  1532.500   5.74504093e+02
  1533.000   5.68640010e+02
  1533.500   5.62727416e+02
  1534.000   5.56766679e+02
  1534.500   5.50760116e+02
  1535.000   5.44711819e+02
  1535.500   5.38627461e+02
  1536.000   5.32514088e+02
  1536.500   5.26379902e+02
  1537.000   5.20234036e+02
  1537.500   5.14086334e+02
  1538.000   5.07947132e+02
  1538.500   5.01827049e+02
  1539.000   4.95736787e+02
  1539.500   4.89686949e+02
  1540.000   4.83687874e+02
  1540.500   4.77749489e+02
  1541.000   4.71881191e+02
  1541.500   4.66091744e+02
  1542.000   4.60389206e+02
  1542.500   4.54780876e+02
  1543.000   4.49273262e+02
  1543.500   4.43872076e+02
  1544.000   4.38582238e+02
  1544.500   4.33407896e+02
  1545.000   4.28352468e+02
  1545.500   4.23418681e+02
  1546.000   4.18608624e+02
  1546.500   4.13923805e+02
  1547.000   4.09365206e+02
  1547.500   4.04933344e+02
  1548.000   4.00628324e+02
  1548.500   3.96449900e+02
  1549.000   3.92397521e+02
  1549.500   3.88470379e+02
  1550.000   3.84667454e+02
  1550.500   3.80987551e+02
  1551.000   3.77429332e+02
  1551.500   3.73991345e+02
  1552.000   3.70672047e+02
  1552.500   3.67469821e+02
  1553.000   3.64382989e+02
  1553.500   3.61409822e+02
  1554.000   3.58548541e+02
  1554.500   3.55797316e+02
  1555.000   3.53154260e+02
  1555.500   3.50617421e+02
  1556.000   3.48184761e+02
  1556.500   3.45854143e+02
  1557.000   3.43623300e+02
  1557.500   3.41489812e+02
  1558.000   3.39451070e+02
  1558.500   3.37504243e+02
  1559.000   3.35646233e+02
  1559.500   3.33873637e+02
  1560.000   3.32182703e+02
  1560.500   3.30569282e+02
  1561.000   3.29028782e+02
  1561.500   3.27556134e+02
  1562.000   3.26145748e+02
  1562.500   3.24791482e+02
  1563.000   3.23486628e+02
  1563.500   3.22223898e+02
  1564.000   3.20995438e+02
  1564.500   3.19792852e+02
  1565.000   3.18607254e+02
  1565.500   3.17429342e+02
  1566.000   3.16249498e+02
  1566.500   3.15057916e+02
  1567.000   3.13844754e+02
  1567.500   3.12600303e+02
  1568.000   3.11315186e+02
  1568.500   3.09980557e+02
  1569.000   3.08588305e+02
  1569.500   3.07131258e+02
  1570.000   3.05603365e+02
  1570.500   3.03999854e+02
  1571.000   3.02317353e+02
  1571.500   3.00553974e+02
  1572.000   2.98709349e+02
  1572.500   2.96784611e+02
  1573.000   2.94782332e+02
  1573.500   2.92706418e+02
  1574.000   2.90561963e+02
  1574.500   2.88355070e+02
  1575.000   2.86092662e+02
  1575.500   2.83782269e+02
  1576.000   2.81431828e+02
  1576.500   2.79049477e+02
  1577.000   2.76643376e+02
  1577.500   2.74221544e+02
  1578.000   2.71791712e+02
  1578.500   2.69361216e+02
  1579.000   2.66936907e+02
  1579.500   2.64525085e+02
  1580.000   2.62131463e+02
  1580.500   2.59761143e+02
  1581.000   2.57418619e+02
  1581.500   2.55107785e+02
  1582.000   2.52831959e+02
  1582.500   2.50593919e+02
  1583.000   2.48395933e+02
  1583.500   2.46239809e+02
  1584.000   2.44126934e+02
  1584.500   2.42058314e+02
  1585.000   2.40034626e+02
  1585.500   2.38056250e+02
  1586.000   2.36123313e+02
  1586.500   2.34235722e+02
  1587.000   2.32393198e+02
  1587.500   2.30595310e+02
  1588.000   2.28841493e+02
  1588.500   2.27131080e+02
  1589.000   2.25463319e+02
  1589.500   2.23837395e+02
  1590.000   2.22252442e+02
  1590.500   2.20707559e+02
  1591.000   2.19201823e+02
  1591.500   2.17734296e+02
  1592.000   2.16304039e+02
  1592.500   2.14910113e+02
  1593.000   2.13551590e+02
  1593.500   2.12227553e+02
  1594.000   2.10937106e+02
  1594.500   2.09679372e+02
  1595.000   2.08453498e+02
  1595.500   2.07258656e+02
  1596.000   2.06094046e+02
  1596.500   2.04958894e+02
  1597.000   2.03852457e+02
  1597.500   2.02774018e+02
  1598.000   2.01722890e+02
  1598.500   2.00698417e+02
  1599.000   1.99699968e+02
  1599.500   1.98726942e+02
  1600.000   1.97778767e+02
  1600.500   1.96854896e+02
  1601.000   1.95954810e+02
  1601.500   1.95078015e+02
  1602.000   1.94224044e+02
  1602.500   1.93392452e+02
  1603.000   1.92582819e+02
  1603.500   1.91794750e+02
  1604.000   1.91027870e+02
  1604.500   1.90281827e+02
  1605.000   1.89556289e+02
  1605.500   1.88850946e+02
  1606.000   1.88165508e+02
  1606.500   1.87499703e+02
  1607.000   1.86853277e+02
  1607.500   1.86225997e+02
  1608.000   1.85617646e+02
  1608.500   1.85028024e+02
  1609.000   1.84456948e+02
  1609.500   1.83904251e+02
  1610.000   1.83369784e+02
  1610.500   1.82853410e+02
  1611.000   1.82355011e+02
  1611.500   1.81874482e+02
  1612.000   1.81411732e+02
  1612.500   1.80966686e+02
  1613.000   1.80539283e+02
  1613.500   1.80129476e+02
  1614.000   1.79737230e+02
  1614.500   1.79362528e+02
  1615.000   1.79005362e+02
  1615.500   1.78665741e+02
  1616.000   1.78343686e+02
  1616.500   1.78039232e+02
  1617.000   1.77752426e+02
  1617.500   1.77483332e+02
  1618.000   1.77232023e+02
  1618.500   1.76998590e+02
  1619.000   1.76783136e+02
  1619.500   1.76585776e+02
  1620.000   1.76406643e+02
  1620.500   1.76245880e+02
  1621.000   1.76103649e+02
  1621.500   1.75980122e+02
  1622.000   1.75875489e+02
  1622.500   1.75789955e+02
  1623.000   1.75723739e+02
  1623.500   1.75677078e+02
  1624.000   1.75650224e+02
  1624.500   1.75643445e+02
  1625.000   1.75657028e+02
  1625.500   1.75691277e+02
  1626.000   1.75746513e+02
  1626.500   1.75823077e+02
  1627.000   1.75921329e+02
  1627.500   1.76041648e+02
  1628.000   1.76184435e+02
  1628.500   1.76350112e+02
  1629.000   1.76539121e+02
  1629.500   1.76751930e+02
  1630.000   1.76989027e+02
  1630.500   1.77250929e+02
  1631.000   1.77538173e+02
  1631.500   1.77851327e+02
  1632.000   1.78190984e+02
  1632.500   1.78557766e+02
  1633.000   1.78952324e+02
  1633.500   1.79375340e+02
  1634.000   1.79827529e+02
  1634.500   1.80309638e+02
  1635.000   1.80822448e+02
  1635.500   1.81366777e+02
  1636.000   1.81943480e+02
  1636.500   1.82553451e+02
  1637.000   1.83197624e+02
  1637.500   1.83876974e+02
  1638.000   1.84592521e+02
  1638.500   1.85345329e+02
  1639.000   1.86136508e+02
  1639.500   1.86967218e+02
  1640.000   1.87838668e+02
  1640.500   1.88752118e+02
  1641.000   1.89708882e+02
  1641.500   1.90710329e+02
  1642.000   1.91757883e+02
  1642.500   1.92853026e+02
  1643.000   1.93997299e+02
  1643.500   1.95192301e+02
  1644.000   1.96439694e+02
  1644.500   1.97741198e+02
  1645.000   1.99098598e+02
  1645.500   2.00513734e+02
  1646.000   2.01988512e+02
  1646.500   2.03524892e+02
  1647.000   2.05124892e+02
  1647.500   2.06790585e+02
  1648.000   2.08524093e+02
  1648.500   2.10327583e+02
  1649.000   2.12203263e+02
  1649.500   2.14153372e+02
  1650.000   2.16180175e+02
  1650.500   2.18285952e+02
  1651.000   2.20472985e+02
  1651.500   2.22743550e+02
  1652.000   2.25099898e+02
  1652.500   2.27544244e+02
  1653.000   2.30078749e+02
  1653.500   2.32705499e+02
  1654.000   2.35426496e+02
  1654.500   2.38243632e+02
  1655.000   2.41158678e+02
  1655.500   2.44173265e+02
  1656.000   2.47288877e+02
  1656.500   2.50506839e+02
  1657.000   2.53828320e+02
  1657.500   2.57254336e+02
  1658.000   2.60785767e+02
  1658.500   2.64423384e+02
  1659.000   2.68167887e+02
  1659.500   2.72019958e+02
  1660.000   2.75980330e+02
  1660.500   2.80049869e+02
  1661.000   2.84229669e+02
  1661.500   2.88521165e+02
  1662.000   2.92926247e+02
  1662.500   2.97447391e+02
  1663.000   3.02087783e+02
  1663.500   3.06851443e+02
  1664.000   3.11743344e+02
  1664.500   3.16769506e+02
  1665.000   3.21937081e+02
  1665.500   3.27254411e+02
  1666.000   3.32731055e+02
  1666.500   3.38377790e+02
  1667.000   3.44206589e+02
  1667.500   3.50230561e+02
  1668.000   3.56463879e+02
  1668.500   3.62921678e+02
  1669.000   3.69619944e+02
  1669.500   3.76575390e+02
  1670.000   3.83805326e+02
  1670.500   3.91327525e+02
  1671.000   3.99160086e+02
  1671.500   4.07321306e+02
  1672.000   4.15829543e+02
  1672.500   4.24703088e+02
  1673.000   4.33960030e+02
  1673.500   4.43618117e+02
  1674.000   4.53694611e+02
  1674.500   4.64206126e+02
  1675.000   4.75168450e+02
  1675.500   4.86596345e+02
  1676.000   4.98503314e+02
  1676.500   5.10901340e+02
  1677.000   5.23800580e+02
  1677.500   5.37209018e+02
  1678.000   5.51132067e+02
  1678.500   5.65572124e+02
  1679.000   5.80528060e+02
  1679.500   5.95994667e+02
  1680.000   6.11962039e+02
  1680.500   6.28414909e+02
  1681.000   6.45331933e+02
  1681.500   6.62684950e+02
  1682.000   6.80438207e+02
  1682.500   6.98547597e+02
  1683.000   7.16959915e+02
  1683.500   7.35612168e+02
  1684.000   7.54430991e+02
  1684.500   7.73332188e+02
  1685.000   7.92220481e+02
  1685.500   8.10989486e+02
  1686.000   8.29521999e+02
  1686.500   8.47690633e+02
  1687.000   8.65358855e+02
  1687.500   8.82382463e+02
  1688.000   8.98611522e+02
  1688.500   9.13892755e+02
  1689.000   9.28072365e+02
  1689.500   9.40999224e+02
  1690.000   9.52528349e+02
  1690.500   9.62524520e+02
  1691.000   9.70865919e+02
  1691.500   9.77447604e+02
  1692.000   9.82184647e+02
  1692.500   9.85014773e+02
  1693.000   9.85900341e+02
  1693.500   9.84829565e+02
  1694.000   9.81816879e+02
  1694.500   9.76902451e+02
  1695.000   9.70150854e+02
  1695.500   9.61648987e+02
  1696.000   9.51503370e+02
  1696.500   9.39836951e+02
  1697.000   9.26785618e+02
  1697.500   9.12494567e+02
  1698.000   8.97114712e+02
  1698.500   8.80799264e+02
  1699.000   8.63700603e+02
  1699.500   8.45967528e+02
  1700.000   8.27742947e+02
  1700.500   8.09162011e+02
  1701.000   7.90350710e+02
  1701.500   7.71424903e+02
  1702.000   7.52489729e+02
  1702.500   7.33639374e+02
  1703.000   7.14957125e+02
  1703.500   6.96515655e+02
  1704.000   6.78377497e+02
  1704.500   6.60595648e+02
  1705.000   6.43214265e+02
  1705.500   6.26269415e+02
  1706.000   6.09789848e+02
  1706.500   5.93797768e+02
  1707.000   5.78309581e+02
  1707.500   5.63336616e+02
  1708.000   5.48885792e+02
  1708.500   5.34960242e+02
  1709.000   5.21559881e+02
  1709.500   5.08681921e+02
  1710.000   4.96321326e+02
  1710.500   4.84471224e+02
  1711.000   4.73123262e+02
  1711.500   4.62267915e+02
  1712.000   4.51894758e+02
  1712.500   4.41992689e+02
  1713.000   4.32550127e+02
  1713.500   4.23555165e+02
  1714.000   4.14995700e+02
  1714.500   4.06859539e+02
  1715.000   3.99134474e+02
  1715.500   3.91808334e+02
  1716.000   3.84869027e+02
  1716.500   3.78304551e+02
  1717.000   3.72102993e+02
  1717.500   3.66252519e+02
  1718.000   3.60741335e+02
  1718.500   3.55557648e+02
  1719.000   3.50689607e+02
  1719.500   3.46125234e+02
  1720.000   3.41852349e+02
  1720.500   3.37858479e+02
  1721.000   3.34130767e+02
  1721.500   3.30655873e+02
  1722.000   3.27419872e+02
  1722.500   3.24408161e+02
  1723.000   3.21605359e+02
  1723.500   3.18995228e+02
  1724.000   3.16560606e+02
  1724.500   3.14283361e+02
  1725.000   3.12144372e+02
  1725.500   3.10123550e+02
  1726.000   3.08199895e+02
  1726.500   3.06351600e+02
  1727.000   3.04556213e+02
  1727.500   3.02790843e+02
  1728.000   3.01032432e+02
  1728.500   2.99258066e+02
  1729.000   2.97445340e+02
  1729.500   2.95572751e+02
  1730.000   2.93620116e+02
  1730.500   2.91568986e+02
  1731.000   2.89403051e+02
  1731.500   2.87108499e+02
  1732.000   2.84674324e+02
  1732.500   2.82092560e+02
  1733.000   2.79358415e+02
  1733.500   2.76470320e+02
  1734.000   2.73429871e+02
  1734.500   2.70241668e+02
  1735.000   2.66913076e+02
  1735.500   2.63453900e+02
  1736.000   2.59876014e+02
  1736.500   2.56192938e+02
  1737.000   2.52419417e+02
  1737.500   2.48570984e+02
  1738.000   2.44663559e+02
  1738.500   2.40713067e+02
  1739.000   2.36735115e+02
  1739.500   2.32744706e+02
  1740.000   2.28756017e+02
  1740.500   2.24782226e+02
  1741.000   2.20835387e+02
  1741.500   2.16926359e+02
  1742.000   2.13064773e+02
  1742.500   2.09259031e+02
  1743.000   2.05516334e+02
  1743.500   2.01842738e+02
  1744.000   1.98243216e+02
  1744.500   1.94721741e+02
  1745.000   1.91281371e+02
  1745.500   1.87924335e+02
  1746.000   1.84652124e+02
  1746.500   1.81465574e+02
  1747.000   1.78364956e+02
  1747.500   1.75350044e+02
  1748.000   1.72420194e+02
  1748.500   1.69574407e+02
  1749.000   1.66811390e+02
  1749.500   1.64129607e+02
  1750.000   1.61527328e+02
  1750.500   1.59002670e+02
  1751.000   1.56553636e+02
  1751.500   1.54178141e+02
  1752.000   1.51874045e+02
  1752.500   1.49639173e+02
  1753.000   1.47471334e+02
  1753.500   1.45368340e+02
  1754.000   1.43328018e+02
  1754.500   1.41348223e+02
  1755.000   1.39426844e+02
  1755.500   1.37561813e+02
  1756.000   1.35751112e+02
  1756.500   1.33992776e+02
  1757.000   1.32284896e+02
  1757.500   1.30625622e+02
  1758.000   1.29013165e+02
  1758.500   1.27445795e+02
  1759.000   1.25921844e+02
  1759.500   1.24439706e+02
  1760.000   1.22997834e+02
  1760.500   1.21594739e+02
  1761.000   1.20228993e+02
  1761.500   1.18899222e+02
  1762.000   1.17604109e+02
  1762.500   1.16342389e+02
  1763.000   1.15112848e+02
  1763.500   1.13914325e+02
  1764.000   1.12745703e+02
  1764.500   1.11605915e+02
  1765.000   1.10493937e+02
  1765.500   1.09408787e+02
  1766.000   1.08349524e+02
  1766.500   1.07315248e+02
  1767.000   1.06305095e+02
  1767.500   1.05318238e+02
  1768.000   1.04353883e+02
  1768.500   1.03411271e+02
  1769.000   1.02489673e+02
  1769.500   1.01588389e+02
  1770.000   1.00706751e+02
  1770.500   9.98441150e+01
  1771.000   9.89998651e+01
  1771.500   9.81734097e+01
  1772.000   9.73641813e+01
  1772.500   9.65716351e+01
  1773.000   9.57952478e+01
  1773.500   9.50345172e+01
  1774.000   9.42889607e+01
  1774.500   9.35581146e+01
  1775.000   9.28415332e+01
  1775.500   9.21387883e+01
  1776.000   9.14494679e+01
  1776.500   9.07731757e+01
  1777.000   9.01095307e+01
  1777.500   8.94581661e+01
  1778.000   8.88187287e+01
  1778.500   8.81908786e+01
  1779.000   8.75742883e+01
  1779.500   8.69686425e+01
  1780.000   8.63736372e+01
  1780.500   8.57889794e+01
  1781.000   8.52143866e+01
  1781.500   8.46495864e+01
  1782.000   8.40943160e+01
  1782.500   8.35483218e+01
  1783.000   8.30113591e+01
  1783.500   8.24831916e+01
  1784.000   8.19635912e+01
  1784.500   8.14523374e+01
  1785.000   8.09492173e+01
  1785.500   8.04540251e+01
  1786.000   7.99665619e+01
  1786.500   7.94866353e+01
  1787.000   7.90140593e+01
  1787.500   7.85486539e+01
  1788.000   7.80902451e+01
  1788.500   7.76386642e+01
  1789.000   7.71937481e+01
  1789.500   7.67553388e+01
  1790.000   7.63232833e+01
  1790.500   7.58974333e+01
  1791.000   7.54776452e+01
  1791.500   7.50637798e+01
  1792.000   7.46557021e+01
  1792.500   7.42532812e+01
  1793.000   7.38563903e+01
  1793.500   7.34649061e+01
  1794.000   7.30787092e+01
  1794.500   7.26976836e+01
  1795.000   7.23217168e+01
  1795.500   7.19506996e+01
  1796.000   7.15845258e+01
  1796.500   7.12230923e+01
  1797.000   7.08662991e+01
  1797.500   7.05140488e+01
  1798.000   7.01662468e+01
  1798.500   6.98228013e+01
  1799.000   6.94836229e+01
  1799.500   6.91486246e+01
  1800.000   6.88177220e+01
  1800.500   6.84908328e+01
  1801.000   6.81678770e+01
  1801.500   6.78487768e+01
  1802.000   6.75334564e+01
  1802.500   6.72218420e+01
  1803.000   6.69138618e+01
  1803.500   6.66094458e+01
  1804.000   6.63085260e+01
  1804.500   6.60110358e+01
  1805.000   6.57169107e+01
  1805.500   6.54260876e+01
  1806.000   6.51385052e+01
  1806.500   6.48541035e+01
  1807.000   6.45728241e+01
  1807.500   6.42946102e+01
  1808.000   6.40194061e+01
  1808.500   6.37471578e+01
  1809.000   6.34778125e+01
  1809.500   6.32113185e+01
  1810.000   6.29476255e+01
  1810.500   6.26866845e+01
  1811.000   6.24284475e+01
  1811.500   6.21728678e+01
  1812.000   6.19198995e+01
  1812.500   6.16694982e+01
  1813.000   6.14216203e+01
  1813.500   6.11762230e+01
  1814.000   6.09332649e+01
  1814.500   6.06927054e+01
  1815.000   6.04545046e+01
  1815.500   6.02186238e+01
  1816.000   5.99850250e+01
  1816.500   5.97536711e+01
  1817.000   5.95245259e+01
  1817.500   5.92975538e+01
  1818.000   5.90727202e+01
  1818.500   5.88499912e+01
  1819.000   5.86293335e+01
  1819.500   5.84107147e+01
  1820.000   5.81941030e+01
  1820.500   5.79794672e+01
  1821.000   5.77667770e+01
  1821.500   5.75560026e+01
  1822.000   5.73471147e+01
  1822.500   5.71400849e+01
  1823.000   5.69348851e+01
  1823.500   5.67314881e+01
  1824.000   5.65298669e+01
  1824.500   5.63299952e+01
  1825.000   5.61318475e+01
  1825.500   5.59353984e+01
  1826.000   5.57406232e+01
  1826.500   5.55474978e+01
  1827.000   5.53559983e+01
  1827.500   5.51661017e+01
  1828.000   5.49777850e+01
  1828.500   5.47910259e+01
  1829.000   5.46058025e+01
  1829.500   5.44220933e+01
  1830.000   5.42398773e+01
  1830.500   5.40591338e+01
  1831.000   5.38798426e+01
  1831.500   5.37019837e+01
  1832.000   5.35255376e+01
  1832.500   5.33504853e+01
  1833.000   5.31768080e+01
  1833.500   5.30044871e+01
  1834.000   5.28335048e+01
  1834.500   5.26638431e+01
  1835.000   5.24954847e+01
  1835.500   5.23284126e+01
  1836.000   5.21626098e+01
  1836.500   5.19980600e+01
  1837.000   5.18347470e+01
  1837.500   5.16726548e+01
  1838.000   5.15117678e+01
  1838.500   5.13520708e+01
  1839.000   5.11935487e+01
  1839.500   5.10361867e+01
  1840.000   5.08799703e+01
  1840.500   5.07248851e+01
  1841.000   5.05709172e+01
  1841.500   5.04180527e+01
  1842.000   5.02662782e+01
  1842.500   5.01155803e+01
  1843.000   4.99659460e+01
  1843.500   4.98173623e+01
  1844.000   4.96698167e+01
  1844.500   4.95232967e+01
  1845.000   4.93777900e+01
  1845.500   4.92332848e+01
  1846.000   4.90897690e+01
  1846.500   4.89472312e+01
  1847.000   4.88056599e+01
  1847.500   4.86650439e+01
  1848.000   4.85253720e+01
  1848.500   4.83866335e+01
  1849.000   4.82488176e+01
  1849.500   4.81119138e+01
  1850.000   4.79759118e+01
  1850.500   4.78408012e+01
  1851.000   4.77065722e+01
  1851.500   4.75732149e+01
  1852.000   4.74407194e+01
  1852.500   4.73090763e+01
  1853.000   4.71782762e+01
  1853.500   4.70483098e+01
  1854.000   4.69191679e+01
  1854.500   4.67908416e+01
  1855.000   4.66633220e+01
  1855.500   4.65366005e+01
  1856.000   4.64106684e+01
  1856.500   4.62855174e+01
  1857.000   4.61611390e+01
  1857.500   4.60375252e+01
  1858.000   4.59146678e+01
  1858.500   4.57925589e+01
  1859.000   4.56711907e+01
  1859.500   4.55505554e+01
  1860.000   4.54306455e+01
  1860.500   4.53114534e+01
  1861.000   4.51929719e+01
  1861.500   4.50751936e+01
  1862.000   4.49581113e+01
  1862.500   4.48417181e+01
  1863.000   4.47260069e+01
  1863.500   4.46109709e+01
  1864.000   4.44966034e+01
  1864.500   4.43828976e+01
  1865.000   4.42698470e+01
  1865.500   4.41574452e+01
  1866.000   4.40456857e+01
  1866.500   4.39345622e+01
  1867.000   4.38240686e+01
  1867.500   4.37141988e+01
  1868.000   4.36049466e+01
  1868.500   4.34963061e+01
  1869.000   4.33882716e+01
  1869.500   4.32808371e+01
  1870.000   4.31739969e+01
  1870.500   4.30677456e+01
  1871.000   4.29620774e+01
  1871.500   4.28569868e+01
  1872.000   4.27524686e+01
  1872.500   4.26485174e+01
  1873.000   4.25451278e+01
  1873.500   4.24422947e+01
  1874.000   4.23400131e+01
  1874.500   4.22382777e+01
  1875.000   4.21370836e+01
  1875.500   4.20364260e+01
  1876.000   4.19362999e+01
  1876.500   4.18367005e+01
  1877.000   4.17376232e+01
  1877.500   4.16390632e+01
  1878.000   4.15410159e+01
  1878.500   4.14434767e+01
  1879.000   4.13464412e+01
  1879.500   4.12499050e+01
  1880.000   4.11538636e+01
  1880.500   4.10583126e+01
  1881.000   4.09632480e+01
  1881.500   4.08686653e+01
  1882.000   4.07745605e+01
  1882.500   4.06809294e+01
  1883.000   4.05877680e+01
  1883.500   4.04950723e+01
  1884.000   4.04028382e+01
  1884.500   4.03110619e+01
  1885.000   4.02197395e+01
  1885.500   4.01288672e+01
  1886.000   4.00384412e+01
  1886.500   3.99484578e+01
  1887.000   3.98589132e+01
  1887.500   3.97698039e+01
  1888.000   3.96811263e+01
  1888.500   3.95928767e+01
  1889.000   3.95050518e+01
  1889.500   3.94176479e+01
  1890.000   3.93306618e+01
  1890.500   3.92440899e+01
  1891.000   3.91579290e+01
  1891.500   3.90721757e+01
  1892.000   3.89868268e+01
  1892.500   3.89018791e+01
  1893.000   3.88173292e+01
  1893.500   3.87331742e+01
  1894.000   3.86494108e+01
  1894.500   3.85660360e+01
  1895.000   3.84830466e+01
  1895.500   3.84004398e+01
  1896.000   3.83182125e+01
  1896.500   3.82363618e+01
  1897.000   3.81548847e+01
  1897.500   3.80737783e+01
  1898.000   3.79930399e+01
  1898.500   3.79126666e+01
  1899.000   3.78326556e+01
  1899.500   3.77530041e+01
  1900.000   3.76737094e+01
  1900.500   3.75947689e+01
  1901.000   3.75161798e+01
  1901.500   3.74379395e+01
  1902.000   3.73600454e+01
  1902.500   3.72824950e+01
  1903.000   3.72052856e+01
  1903.500   3.71284148e+01
  1904.000   3.70518800e+01
  1904.500   3.69756788e+01
  1905.000   3.68998087e+01
  1905.500   3.68242673e+01
  1906.000   3.67490522e+01
  1906.500   3.66741610e+01
  1907.000   3.65995915e+01
  1907.500   3.65253412e+01
  1908.000   3.64514080e+01
  1908.500   3.63777894e+01
  1909.000   3.63044833e+01
  1909.500   3.62314874e+01
  1910.000   3.61587996e+01
  1910.500   3.60864176e+01
  1911.000   3.60143394e+01
  1911.500   3.59425627e+01
  1912.000   3.58710854e+01
  1912.500   3.57999056e+01
  1913.000   3.57290210e+01
  1913.500   3.56584297e+01
  1914.000   3.55881296e+01
  1914.500   3.55181187e+01
  1915.000   3.54483950e+01
  1915.500   3.53789566e+01
  1916.000   3.53098015e+01
  1916.500   3.52409278e+01
  1917.000   3.51723335e+01
  1917.500   3.51040168e+01
  1918.000   3.50359759e+01
  1918.500   3.49682087e+01
  1919.000   3.49007136e+01
  1919.500   3.48334887e+01
  1920.000   3.47665322e+01
  1920.500   3.46998423e+01
  1921.000   3.46334173e+01
  1921.500   3.45672554e+01
  1922.000   3.45013548e+01
  1922.500   3.44357139e+01
  1923.000   3.43703309e+01
  1923.500   3.43052043e+01
  1924.000   3.42403322e+01
  1924.500   3.41757131e+01
  1925.000   3.41113452e+01
  1925.500   3.40472271e+01
  1926.000   3.39833571e+01
  1926.500   3.39197336e+01
  1927.000   3.38563550e+01
  1927.500   3.37932198e+01
  1928.000   3.37303264e+01
  1928.500   3.36676734e+01
  1929.000   3.36052590e+01
  1929.500   3.35430820e+01
  1930.000   3.34811407e+01
  1930.500   3.34194337e+01
  1931.000   3.33579596e+01
  1931.500   3.32967169e+01
  1932.000   3.32357041e+01
  1932.500   3.31749198e+01
  1933.000   3.31143627e+01
  1933.500   3.30540313e+01
  1934.000   3.29939242e+01
  1934.500   3.29340401e+01
  1935.000   3.28743776e+01
  1935.500   3.28149354e+01
  1936.000   3.27557120e+01
  1936.500   3.26967063e+01
  1937.000   3.26379169e+01
  1937.500   3.25793424e+01
  1938.000   3.25209816e+01
  1938.500   3.24628332e+01
  1939.000   3.24048959e+01
  1939.500   3.23471686e+01
  1940.000   3.22896498e+01
  1940.500   3.22323385e+01
  1941.000   3.21752334e+01
  1941.500   3.21183332e+01
  1942.000   3.20616367e+01
  1942.500   3.20051428e+01
  1943.000   3.19488504e+01
  1943.500   3.18927581e+01
  1944.000   3.18368648e+01
  1944.500   3.17811695e+01
  1945.000   3.17256709e+01
  1945.500   3.16703679e+01
  1946.000   3.16152594e+01
  1946.500   3.15603442e+01
  1947.000   3.15056213e+01
  1947.500   3.14510896e+01
  1948.000   3.13967480e+01
  1948.500   3.13425954e+01
  1949.000   3.12886307e+01
  1949.500   3.12348529e+01
  1950.000   3.11812608e+01
  1950.500   3.11278536e+01
  1951.000   3.10746301e+01
  1951.500   3.10215893e+01
  1952.000   3.09687302e+01
  1952.500   3.09160518e+01
  1953.000   3.08635531e+01
  1953.500   3.08112330e+01
  1954.000   3.07590907e+01
  1954.500   3.07071251e+01
  1955.000   3.06553352e+01
  1955.500   3.06037201e+01
  1956.000   3.05522788e+01
  1956.500   3.05010105e+01
  1957.000   3.04499140e+01
  1957.500   3.03989886e+01
  1958.000   3.03482333e+01
  1958.500   3.02976472e+01
  1959.000   3.02472293e+01
  1959.500   3.01969787e+01
  1960.000   3.01468946e+01
  1960.500   3.00969761e+01
  1961.000   3.00472223e+01
  1961.500   2.99976323e+01
  1962.000   2.99482052e+01
  1962.500   2.98989402e+01
  1963.000   2.98498364e+01
  1963.500   2.98008930e+01
  1964.000   2.97521091e+01
  1964.500   2.97034839e+01
  1965.000   2.96550166e+01
  1965.500   2.96067063e+01
  1966.000   2.95585522e+01
  1966.500   2.95105535e+01
  1967.000   2.94627095e+01
  1967.500   2.94150192e+01
  1968.000   2.93674820e+01
  1968.500   2.93200970e+01
  1969.000   2.92728634e+01
  1969.500   2.92257805e+01
  1970.000   2.91788475e+01
  1970.500   2.91320636e+01
  1971.000   2.90854281e+01
  1971.500   2.90389402e+01
  1972.000   2.89925992e+01
  1972.500   2.89464043e+01
  1973.000   2.89003548e+01
  1973.500   2.88544500e+01
  1974.000   2.88086891e+01
  1974.500   2.87630714e+01
  1975.000   2.87175963e+01
  1975.500   2.86722629e+01
  1976.000   2.86270706e+01
  1976.500   2.85820187e+01
  1977.000   2.85371064e+01
  1977.500   2.84923332e+01
  1978.000   2.84476983e+01
  1978.500   2.84032010e+01
  1979.000   2.83588407e+01
  1979.500   2.83146166e+01
  1980.000   2.82705282e+01
  1980.500   2.82265747e+01
  1981.000   2.81827556e+01
  1981.500   2.81390701e+01
  1982.000   2.80955176e+01
  1982.500   2.80520974e+01
  1983.000   2.80088090e+01
  1983.500   2.79656516e+01
  1984.000   2.79226248e+01
  1984.500   2.78797277e+01
  1985.000   2.78369599e+01
  1985.500   2.77943206e+01
  1986.000   2.77518094e+01
  1986.500   2.77094255e+01
  1987.000   2.76671684e+01
  1987.500   2.76250374e+01
  1988.000   2.75830320e+01
  1988.500   2.75411516e+01
  1989.000   2.74993956e+01
  1989.500   2.74577634e+01
  1990.000   2.74162545e+01
  1990.500   2.73748682e+01
  1991.000   2.73336039e+01
  1991.500   2.72924612e+01
  1992.000   2.72514394e+01
  1992.500   2.72105381e+01
  1993.000   2.71697565e+01
  1993.500   2.71290942e+01
  1994.000   2.70885507e+01
  1994.500   2.70481253e+01
  1995.000   2.70078176e+01
  1995.500   2.69676270e+01
  1996.000   2.69275529e+01
  1996.500   2.68875949e+01
  1997.000   2.68477524e+01
  1997.500   2.68080248e+01
  1998.000   2.67684118e+01
  1998.500   2.67289126e+01
  1999.000   2.66895269e+01
  1999.500   2.66502541e+01
  2000.000   2.66110937e+01
  2000.500   2.65720452e+01
  2001.000   2.65331081e+01
  2001.500   2.64942820e+01
  2002.000   2.64555662e+01
  2002.500   2.64169603e+01
  2003.000   2.63784639e+01
  2003.500   2.63400764e+01
  2004.000   2.63017974e+01
  2004.500   2.62636263e+01
  2005.000   2.62255628e+01
  2005.500   2.61876062e+01
  2006.000   2.61497563e+01
  2006.500   2.61120124e+01
  2007.000   2.60743741e+01
  2007.500   2.60368411e+01
  2008.000   2.59994127e+01
  2008.500   2.59620886e+01
  2009.000   2.59248682e+01
  2009.500   2.58877513e+01
  2010.000   2.58507372e+01
  2010.500   2.58138256e+01
  2011.000   2.57770159e+01
  2011.500   2.57403079e+01
  2012.000   2.57037010e+01
  2012.500   2.56671948e+01
  2013.000   2.56307889e+01
  2013.500   2.55944828e+01
  2014.000   2.55582761e+01
  2014.500   2.55221684e+01
  2015.000   2.54861594e+01
  2015.500   2.54502484e+01
  2016.000   2.54144352e+01
  2016.500   2.53787193e+01
  2017.000   2.53431004e+01
  2017.500   2.53075779e+01
  2018.000   2.52721516e+01
  2018.500   2.52368209e+01
  2019.000   2.52015856e+01
  2019.500   2.51664451e+01
  2020.000   2.51313992e+01
  2020.500   2.50964473e+01
  2021.000   2.50615892e+01
  2021.500   2.50268244e+01
  2022.000   2.49921525e+01
  2022.500   2.49575732e+01
  2023.000   2.49230861e+01
  2023.500   2.48886908e+01
  2024.000   2.48543869e+01
  2024.500   2.48201740e+01
  2025.000   2.47860518e+01
  2025.500   2.47520199e+01
  2026.000   2.47180779e+01
  2026.500   2.46842255e+01
  2027.000   2.46504623e+01
  2027.500   2.46167879e+01
  2028.000   2.45832020e+01
  2028.500   2.45497042e+01
  2029.000   2.45162942e+01
  2029.500   2.44829716e+01
  2030.000   2.44497360e+01
  2030.500   2.44165871e+01
  2031.000   2.43835246e+01
  2031.500   2.43505480e+01
  2032.000   2.43176572e+01
  2032.500   2.42848516e+01
  2033.000   2.42521311e+01
  2033.500   2.42194952e+01
  2034.000   2.41869436e+01
  2034.500   2.41544759e+01
  2035.000   2.41220919e+01
  2035.500   2.40897912e+01
  2036.000   2.40575735e+01
  2036.500   2.40254384e+01
  2037.000   2.39933856e+01
  2037.500   2.39614149e+01
  2038.000   2.39295258e+01
  2038.500   2.38977181e+01
  2039.000   2.38659914e+01
  2039.500   2.38343455e+01
  2040.000   2.38027799e+01
  2040.500   2.37712945e+01
  2041.000   2.37398888e+01
  2041.500   2.37085626e+01
  2042.000   2.36773156e+01
  2042.500   2.36461475e+01
  2043.000   2.36150579e+01
  2043.500   2.35840465e+01
  2044.000   2.35531131e+01
  2044.500   2.35222574e+01
  2045.000   2.34914790e+01
  2045.500   2.34607776e+01
  2046.000   2.34301531e+01
  2046.500   2.33996050e+01
  2047.000   2.33691331e+01
  2047.500   2.33387371e+01
  2048.000   2.33084166e+01
  2048.500   2.32781715e+01
  2049.000   2.32480014e+01
  2049.500   2.32179061e+01
  2050.000   2.31878852e+01
  2050.500   2.31579385e+01
  2051.000   2.31280658e+01
  2051.500   2.30982666e+01
  2052.000   2.30685408e+01
  2052.500   2.30388880e+01
  2053.000   2.30093081e+01
  2053.500   2.29798007e+01
  2054.000   2.29503655e+01
  2054.500   2.29210024e+01
  2055.000   2.28917109e+01
  2055.500   2.28624910e+01
  2056.000   2.28333422e+01
  2056.500   2.28042643e+01
  2057.000   2.27752571e+01
  2057.500   2.27463203e+01
  2058.000   2.27174536e+01
  2058.500   2.26886569e+01
  2059.000   2.26599297e+01
  2059.500   2.26312719e+01
  2060.000   2.26026833e+01
  2060.500   2.25741635e+01
  2061.000   2.25457124e+01
  2061.500   2.25173296e+01
  2062.000   2.24890149e+01
  2062.500   2.24607681e+01
  2063.000   2.24325889e+01
  2063.500   2.24044771e+01
  2064.000   2.23764324e+01
  2064.500   2.23484546e+01
  2065.000   2.23205435e+01
  2065.500   2.22926987e+01
  2066.000   2.22649202e+01
  2066.500   2.22372076e+01
  2067.000   2.22095606e+01
  2067.500   2.21819792e+01
  2068.000   2.21544629e+01
  2068.500   2.21270117e+01
  2069.000   2.20996252e+01
  2069.500   2.20723033e+01
  2070.000   2.20450456e+01
  2070.500   2.20178520e+01
  2071.000   2.19907223e+01
  2071.500   2.19636562e+01
  2072.000   2.19366535e+01
  2072.500   2.19097139e+01
  2073.000   2.18828373e+01
  2073.500   2.18560235e+01
  2074.000   2.18292721e+01
  2074.500   2.18025831e+01
  2075.000   2.17759561e+01
  2075.500   2.17493909e+01
  2076.000   2.17228874e+01
  2076.500   2.16964453e+01
  2077.000   2.16700644e+01
  2077.500   2.16437445e+01
  2078.000   2.16174854e+01
  2078.500   2.15912869e+01
  2079.000   2.15651487e+01
  2079.500   2.15390706e+01
  2080.000   2.15130525e+01
  2080.500   2.14870942e+01
  2081.000   2.14611954e+01
  2081.500   2.14353559e+01
  2082.000   2.14095755e+01
  2082.500   2.13838540e+01
  2083.000   2.13581913e+01
  2083.500   2.13325871e+01
  2084.000   2.13070412e+01
  2084.500   2.12815534e+01
  2085.000   2.12561235e+01
  2085.500   2.12307513e+01
  2086.000   2.12054367e+01
  2086.500   2.11801794e+01
  2087.000   2.11549792e+01
  2087.500   2.11298360e+01
  2088.000   2.11047495e+01
  2088.500   2.10797196e+01
  2089.000   2.10547460e+01
  2089.500   2.10298286e+01
  2090.000   2.10049673e+01
  2090.500   2.09801617e+01
  2091.000   2.09554117e+01
  2091.500   2.09307171e+01
  2092.000   2.09060778e+01
  2092.500   2.08814935e+01
  2093.000   2.08569642e+01
  2093.500   2.08324895e+01
  2094.000   2.08080693e+01
  2094.500   2.07837034e+01
  2095.000   2.07593917e+01
  2095.500   2.07351339e+01
  2096.000   2.07109300e+01
  2096.500   2.06867796e+01
  2097.000   2.06626827e+01
  2097.500   2.06386390e+01
  2098.000   2.06146484e+01
  2098.500   2.05907107e+01
  2099.000   2.05668258e+01
  2099.500   2.05429934e+01
  2100.000   2.05192134e+01
  2100.500   2.04954856e+01
  2101.000   2.04718098e+01
  2101.500   2.04481860e+01
  2102.000   2.04246138e+01
  2102.500   2.04010932e+01
  2103.000   2.03776239e+01
  2103.500   2.03542059e+01
  2104.000   2.03308389e+01
  2104.500   2.03075227e+01
  2105.000   2.02842573e+01
  2105.500   2.02610424e+01
  2106.000   2.02378779e+01
  2106.500   2.02147636e+01
  2107.000   2.01916994e+01
  2107.500   2.01686850e+01
  2108.000   2.01457204e+01
  2108.500   2.01228054e+01
  2109.000   2.00999398e+01
  2109.500   2.00771234e+01
  2110.000   2.00543562e+01
  2110.500   2.00316378e+01
  2111.000   2.00089683e+01
  2111.500   1.99863474e+01
  2112.000   1.99637750e+01
  2112.500   1.99412510e+01
  2113.000   1.99187751e+01
  2113.500   1.98963472e+01
  2114.000   1.98739671e+01
  2114.500   1.98516348e+01
  2115.000   1.98293501e+01
  2115.500   1.98071128e+01
  2116.000   1.97849227e+01
  2116.500   1.97627798e+01
  2117.000   1.97406838e+01
  2117.500   1.97186347e+01
  2118.000   1.96966322e+01
  2118.500   1.96746763e+01
  2119.000   1.96527667e+01
  2119.500   1.96309034e+01
  2120.000   1.96090862e+01
  2120.500   1.95873150e+01
  2121.000   1.95655895e+01
  2121.500   1.95439097e+01
  2122.000   1.95222755e+01
  2122.500   1.95006866e+01
  2123.000   1.94791430e+01
  2123.500   1.94576445e+01
  2124.000   1.94361909e+01
  2124.500   1.94147822e+01
  2125.000   1.93934181e+01
  2125.500   1.93720986e+01
  2126.000   1.93508236e+01
  2126.500   1.93295928e+01
  2127.000   1.93084061e+01
  2127.500   1.92872635e+01
  2128.000   1.92661647e+01
  2128.500   1.92451097e+01
  2129.000   1.92240982e+01
  2129.500   1.92031303e+01
  2130.000   1.91822057e+01
  2130.500   1.91613243e+01
  2131.000   1.91404859e+01
  2131.500   1.91196906e+01
  2132.000   1.90989380e+01
  2132.500   1.90782281e+01
  2133.000   1.90575608e+01
  2133.500   1.90369359e+01
  2134.000   1.90163533e+01
  2134.500   1.89958129e+01
  2135.000   1.89753146e+01
  2135.500   1.89548581e+01
  2136.000   1.89344435e+01
  2136.500   1.89140705e+01
  2137.000   1.88937391e+01
  2137.500   1.88734491e+01
  2138.000   1.88532003e+01
  2138.500   1.88329928e+01
  2139.000   1.88128263e+01
  2139.500   1.87927008e+01
  2140.000   1.87726160e+01
  2140.500   1.87525720e+01
  2141.000   1.87325685e+01
  2141.500   1.87126054e+01
  2142.000   1.86926827e+01
  2142.500   1.86728002e+01
  2143.000   1.86529578e+01
  2143.500   1.86331553e+01
  2144.000   1.86133927e+01
  2144.500   1.85936698e+01
  2145.000   1.85739866e+01
  2145.500   1.85543428e+01
  2146.000   1.85347385e+01
  2146.500   1.85151734e+01
  2147.000   1.84956475e+01
  2147.500   1.84761606e+01
  2148.000   1.84567126e+01
  2148.500   1.84373035e+01
  2149.000   1.84179330e+01
  2149.500   1.83986011e+01
  2150.000   1.83793078e+01
  2150.500   1.83600527e+01
  2151.000   1.83408360e+01
  2151.500   1.83216573e+01
  2152.000   1.83025167e+01
  2152.500   1.82834141e+01
  2153.000   1.82643492e+01
  2153.500   1.82453220e+01
  2154.000   1.82263325e+01
  2154.500   1.82073804e+01
  2155.000   1.81884657e+01
  2155.500   1.81695883e+01
  2156.000   1.81507480e+01
  2156.500   1.81319448e+01
  2157.000   1.81131786e+01
  2157.500   1.80944492e+01
  2158.000   1.80757565e+01
  2158.500   1.80571005e+01
  2159.000   1.80384810e+01
  2159.500   1.80198979e+01
  2160.000   1.80013512e+01
  2160.500   1.79828407e+01
  2161.000   1.79643663e+01
  2161.500   1.79459279e+01
  2162.000   1.79275254e+01
  2162.500   1.79091587e+01
  2163.000   1.78908278e+01
  2163.500   1.78725325e+01
  2164.000   1.78542726e+01
  2164.500   1.78360482e+01
  2165.000   1.78178591e+01
  2165.500   1.77997052e+01
  2166.000   1.77815864e+01
  2166.500   1.77635027e+01
  2167.000   1.77454538e+01
  2167.500   1.77274398e+01
  2168.000   1.77094605e+01
  2168.500   1.76915158e+01
  2169.000   1.76736056e+01
  2169.500   1.76557299e+01
  2170.000   1.76378885e+01
  2170.500   1.76200814e+01
  2171.000   1.76023083e+01
  2171.500   1.75845694e+01
  2172.000   1.75668644e+01
  2172.500   1.75491933e+01
  2173.000   1.75315559e+01
  2173.500   1.75139522e+01
  2174.000   1.74963821e+01
  2174.500   1.74788455e+01
  2175.000   1.74613422e+01
  2175.500   1.74438723e+01
  2176.000   1.74264356e+01
  2176.500   1.74090320e+01
  2177.000   1.73916615e+01
  2177.500   1.73743239e+01
  2178.000   1.73570191e+01
  2178.500   1.73397471e+01
  2179.000   1.73225078e+01
  2179.500   1.73053011e+01
  2180.000   1.72881268e+01
  2180.500   1.72709850e+01
  2181.000   1.72538755e+01
  2181.500   1.72367982e+01
  2182.000   1.72197530e+01
  2182.500   1.72027399e+01
  2183.000   1.71857588e+01
  2183.500   1.71688096e+01
  2184.000   1.71518921e+01
  2184.500   1.71350064e+01
  2185.000   1.71181523e+01
  2185.500   1.71013297e+01
  2186.000   1.70845386e+01
  2186.500   1.70677788e+01
  2187.000   1.70510504e+01
  2187.500   1.70343531e+01
  2188.000   1.70176870e+01
  2188.500   1.70010519e+01
  2189.000   1.69844477e+01
  2189.500   1.69678744e+01
  2190.000   1.69513319e+01
  2190.500   1.69348201e+01
  2191.000   1.69183390e+01
  2191.500   1.69018883e+01
  2192.000   1.68854682e+01
  2192.500   1.68690784e+01
  2193.000   1.68527189e+01
  2193.500   1.68363896e+01
  2194.000   1.68200905e+01
  2194.500   1.68038214e+01
  2195.000   1.67875823e+01
  2195.500   1.67713731e+01
  2196.000   1.67551937e+01
  2196.500   1.67390441e+01
  2197.000   1.67229241e+01
  2197.500   1.67068337e+01
  2198.000   1.66907729e+01
  2198.500   1.66747414e+01
  2199.000   1.66587393e+01
  2199.500   1.66427665e+01
  2200.000   1.66268229e+01
  2200.500   1.66109084e+01
  2201.000   1.65950230e+01
  2201.500   1.65791665e+01
  2202.000   1.65633389e+01
  2202.500   1.65475402e+01
  2203.000   1.65317702e+01
  2203.500   1.65160289e+01
  2204.000   1.65003161e+01
  2204.500   1.64846319e+01
  2205.000   1.64689762e+01
  2205.500   1.64533488e+01
  2206.000   1.64377497e+01
  2206.500   1.64221789e+01
  2207.000   1.64066362e+01
  2207.500   1.63911216e+01
  2208.000   1.63756350e+01
  2208.500   1.63601763e+01
  2209.000   1.63447455e+01
  2209.500   1.63293425e+01
  2210.000   1.63139673e+01
  2210.500   1.62986197e+01
  2211.000   1.62832996e+01
  2211.500   1.62680071e+01
  2212.000   1.62527421e+01
  2212.500   1.62375044e+01
  2213.000   1.62222940e+01
  2213.500   1.62071108e+01
  2214.000   1.61919548e+01
  2214.500   1.61768259e+01
  2215.000   1.61617240e+01
  2215.500   1.61466491e+01
  2216.000   1.61316011e+01
  2216.500   1.61165799e+01
  2217.000   1.61015854e+01
  2217.500   1.60866176e+01
  2218.000   1.60716765e+01
  2218.500   1.60567619e+01
  2219.000   1.60418738e+01
  2219.500   1.60270121e+01
  2220.000   1.60121767e+01
  2220.500   1.59973677e+01
  2221.000   1.59825848e+01
  2221.500   1.59678281e+01
  2222.000   1.59530975e+01
  2222.500   1.59383930e+01
  2223.000   1.59237143e+01
  2223.500   1.59090616e+01
  2224.000   1.58944347e+01
  2224.500   1.58798336e+01
  2225.000   1.58652581e+01
  2225.500   1.58507083e+01
  2226.000   1.58361841e+01
  2226.500   1.58216854e+01
  2227.000   1.58072121e+01
  2227.500   1.57927642e+01
  2228.000   1.57783416e+01
  2228.500   1.57639443e+01
  2229.000   1.57495722e+01
  2229.500   1.57352252e+01
  2230.000   1.57209033e+01
  2230.500   1.57066064e+01
  2231.000   1.56923344e+01
  2231.500   1.56780873e+01
  2232.000   1.56638651e+01
  2232.500   1.56496676e+01
  2233.000   1.56354948e+01
  2233.500   1.56213466e+01
  2234.000   1.56072230e+01
  2234.500   1.55931240e+01
  2235.000   1.55790494e+01
  2235.500   1.55649992e+01
  2236.000   1.55509734e+01
  2236.500   1.55369718e+01
  2237.000   1.55229945e+01
  2237.500   1.55090413e+01
  2238.000   1.54951122e+01
  2238.500   1.54812072e+01
  2239.000   1.54673262e+01
  2239.500   1.54534691e+01
  2240.000   1.54396358e+01
  2240.500   1.54258264e+01
  2241.000   1.54120408e+01
  2241.500   1.53982788e+01
  2242.000   1.53845405e+01
  2242.500   1.53708258e+01
  2243.000   1.53571346e+01
  2243.500   1.53434669e+01
  2244.000   1.53298226e+01
  2244.500   1.53162016e+01
  2245.000   1.53026040e+01
  2245.500   1.52890296e+01
  2246.000   1.52754784e+01
  2246.500   1.52619504e+01
  2247.000   1.52484454e+01
  2247.500   1.52349634e+01
  2248.000   1.52215045e+01
  2248.500   1.52080684e+01
  2249.000   1.51946552e+01
  2249.500   1.51812648e+01
  2250.000   1.51678972e+01
  2250.500   1.51545523e+01
  2251.000   1.51412300e+01
  2251.500   1.51279303e+01
  2252.000   1.51146531e+01
  2252.500   1.51013985e+01
  2253.000   1.50881662e+01
  2253.500   1.50749564e+01
  2254.000   1.50617689e+01
  2254.500   1.50486036e+01
  2255.000   1.50354606e+01
  2255.500   1.50223397e+01
  2256.000   1.50092410e+01
  2256.500   1.49961643e+01
  2257.000   1.49831097e+01
  2257.500   1.49700770e+01
  2258.000   1.49570662e+01
  2258.500   1.49440773e+01
  2259.000   1.49311102e+01
  2259.500   1.49181648e+01
  2260.000   1.49052412e+01
  2260.500   1.48923392e+01
  2261.000   1.48794588e+01
  2261.500   1.48666000e+01
  2262.000   1.48537627e+01
  2262.500   1.48409468e+01
  2263.000   1.48281524e+01
  2263.500   1.48153793e+01
  2264.000   1.48026275e+01
  2264.500   1.47898970e+01
  2265.000   1.47771876e+01
  2265.500   1.47644995e+01
  2266.000   1.47518324e+01
  2266.500   1.47391865e+01
  2267.000   1.47265615e+01
  2267.500   1.47139575e+01
  2268.000   1.47013744e+01
  2268.500   1.46888122e+01
  2269.000   1.46762708e+01
  2269.500   1.46637502e+01
  2270.000   1.46512503e+01
  2270.500   1.46387711e+01
  2271.000   1.46263125e+01
  2271.500   1.46138745e+01
  2272.000   1.46014571e+01
  2272.500   1.45890601e+01
  2273.000   1.45766836e+01
  2273.500   1.45643275e+01
  2274.000   1.45519918e+01
  2274.500   1.45396763e+01
  2275.000   1.45273811e+01
  2275.500   1.45151061e+01
  2276.000   1.45028513e+01
  2276.500   1.44906166e+01
  2277.000   1.44784020e+01
  2277.500   1.44662075e+01
  2278.000   1.44540329e+01
  2278.500   1.44418782e+01
  2279.000   1.44297435e+01
  2279.500   1.44176286e+01
  2280.000   1.44055335e+01
  2280.500   1.43934582e+01
  2281.000   1.43814026e+01
  2281.500   1.43693666e+01
  2282.000   1.43573503e+01
  2282.500   1.43453536e+01
  2283.000   1.43333765e+01
  2283.500   1.43214188e+01
  2284.000   1.43094806e+01
  2284.500   1.42975618e+01
  2285.000   1.42856623e+01
  2285.500   1.42737822e+01
  2286.000   1.42619214e+01
  2286.500   1.42500799e+01
  2287.000   1.42382575e+01
  2287.500   1.42264542e+01
  2288.000   1.42146701e+01
  2288.500   1.42029051e+01
  2289.000   1.41911591e+01
  2289.500   1.41794321e+01
  2290.000   1.41677240e+01
  2290.500   1.41560348e+01
  2291.000   1.41443645e+01
  2291.500   1.41327130e+01
  2292.000   1.41210803e+01
  2292.500   1.41094663e+01
  2293.000   1.40978711e+01
  2293.500   1.40862944e+01
  2294.000   1.40747364e+01
  2294.500   1.40631970e+01
  2295.000   1.40516761e+01
  2295.500   1.40401737e+01
  2296.000   1.40286898e+01
  2296.500   1.40172242e+01
  2297.000   1.40057770e+01
  2297.500   1.39943482e+01
  2298.000   1.39829377e+01
  2298.500   1.39715454e+01
  2299.000   1.39601713e+01
  2299.500   1.39488154e+01
  2300.000   1.39374777e+01
  2300.500   1.39261580e+01
  2301.000   1.39148564e+01
  2301.500   1.39035728e+01
  2302.000   1.38923072e+01
  2302.500   1.38810595e+01
  2303.000   1.38698297e+01
  2303.500   1.38586178e+01
  2304.000   1.38474237e+01
  2304.500   1.38362474e+01
  2305.000   1.38250889e+01
  2305.500   1.38139480e+01
  2306.000   1.38028249e+01
  2306.500   1.37917193e+01
  2307.000   1.37806314e+01
  2307.500   1.37695610e+01
  2308.000   1.37585082e+01
  2308.500   1.37474728e+01
  2309.000   1.37364549e+01
  2309.500   1.37254544e+01
  2310.000   1.37144712e+01
  2310.500   1.37035054e+01
  2311.000   1.36925569e+01
  2311.500   1.36816257e+01
  2312.000   1.36707117e+01
  2312.500   1.36598148e+01
  2313.000   1.36489352e+01
  2313.500   1.36380726e+01
  2314.000   1.36272271e+01
  2314.500   1.36163987e+01
  2315.000   1.36055873e+01
  2315.500   1.35947929e+01
  2316.000   1.35840154e+01
  2316.500   1.35732547e+01
  2317.000   1.35625110e+01
  2317.500   1.35517841e+01
  2318.000   1.35410740e+01
  2318.500   1.35303807e+01
  2319.000   1.35197040e+01
  2319.500   1.35090441e+01
  2320.000   1.34984008e+01
  2320.500   1.34877742e+01
  2321.000   1.34771641e+01
  2321.500   1.34665706e+01
  2322.000   1.34559936e+01
  2322.500   1.34454331e+01
  2323.000   1.34348891e+01
  2323.500   1.34243615e+01
  2324.000   1.34138502e+01
  2324.500   1.34033553e+01
  2325.000   1.33928767e+01
  2325.500   1.33824144e+01
  2326.000   1.33719683e+01
  2326.500   1.33615385e+01
  2327.000   1.33511248e+01
  2327.500   1.33407273e+01
  2328.000   1.33303459e+01
  2328.500   1.33199806e+01
  2329.000   1.33096313e+01
  2329.500   1.32992980e+01
  2330.000   1.32889807e+01
  2330.500   1.32786794e+01
  2331.000   1.32683940e+01
  2331.500   1.32581245e+01
  2332.000   1.32478708e+01
  2332.500   1.32376329e+01
  2333.000   1.32274109e+01
  2333.500   1.32172046e+01
  2334.000   1.32070140e+01
  2334.500   1.31968391e+01
  2335.000   1.31866798e+01
  2335.500   1.31765362e+01
  2336.000   1.31664082e+01
  2336.500   1.31562958e+01
  2337.000   1.31461989e+01
  2337.500   1.31361175e+01
  2338.000   1.31260515e+01
  2338.500   1.31160010e+01
  2339.000   1.31059659e+01
  2339.500   1.30959462e+01
  2340.000   1.30859419e+01
  2340.500   1.30759528e+01
  2341.000   1.30659791e+01
  2341.500   1.30560206e+01
  2342.000   1.30460773e+01
  2342.500   1.30361492e+01
  2343.000   1.30262363e+01
  2343.500   1.30163385e+01
  2344.000   1.30064558e+01
  2344.500   1.29965882e+01
  2345.000   1.29867357e+01
  2345.500   1.29768981e+01
  2346.000   1.29670756e+01
  2346.500   1.29572680e+01
  2347.000   1.29474753e+01
  2347.500   1.29376975e+01
  2348.000   1.29279346e+01
  2348.500   1.29181865e+01
  2349.000   1.29084532e+01
  2349.500   1.28987347e+01
  2350.000   1.28890310e+01
  2350.500   1.28793419e+01
  2351.000   1.28696676e+01
  2351.500   1.28600079e+01
  2352.000   1.28503629e+01
  2352.500   1.28407325e+01
  2353.000   1.28311166e+01
  2353.500   1.28215153e+01
  2354.000   1.28119285e+01
  2354.500   1.28023562e+01
  2355.000   1.27927984e+01
  2355.500   1.27832550e+01
  2356.000   1.27737260e+01
  2356.500   1.27642114e+01
  2357.000   1.27547111e+01
  2357.500   1.27452252e+01
  2358.000   1.27357535e+01
  2358.500   1.27262961e+01
  2359.000   1.27168530e+01
  2359.500   1.27074241e+01
  2360.000   1.26980093e+01
  2360.500   1.26886087e+01
  2361.000   1.26792223e+01
  2361.500   1.26698500e+01
  2362.000   1.26604917e+01
  2362.500   1.26511475e+01
  2363.000   1.26418173e+01
  2363.500   1.26325011e+01
  2364.000   1.26231988e+01
  2364.500   1.26139105e+01
  2365.000   1.26046362e+01
  2365.500   1.25953757e+01
  2366.000   1.25861291e+01
  2366.500   1.25768963e+01
  2367.000   1.25676773e+01
  2367.500   1.25584721e+01
  2368.000   1.25492807e+01
  2368.500   1.25401030e+01
  2369.000   1.25309390e+01
  2369.500   1.25217886e+01
  2370.000   1.25126520e+01
  2370.500   1.25035289e+01
  2371.000   1.24944195e+01
  2371.500   1.24853236e+01
  2372.000   1.24762413e+01
  2372.500   1.24671725e+01
  2373.000   1.24581173e+01
  2373.500   1.24490755e+01
  2374.000   1.24400471e+01
  2374.500   1.24310322e+01
  2375.000   1.24220306e+01
  2375.500   1.24130425e+01
  2376.000   1.24040677e+01
  2376.500   1.23951062e+01
  2377.000   1.23861580e+01
  2377.500   1.23772231e+01
  2378.000   1.23683014e+01
  2378.500   1.23593930e+01
  2379.000   1.23504977e+01
  2379.500   1.23416157e+01
  2380.000   1.23327468e+01
  2380.500   1.23238910e+01
  2381.000   1.23150483e+01
  2381.500   1.23062187e+01
  2382.000   1.22974022e+01
  2382.500   1.22885987e+01
  2383.000   1.22798082e+01
  2383.500   1.22710306e+01
  2384.000   1.22622661e+01
  2384.500   1.22535145e+01
  2385.000   1.22447757e+01
  2385.500   1.22360499e+01
  2386.000   1.22273370e+01
  2386.500   1.22186368e+01
  2387.000   1.22099495e+01
  2387.500   1.22012750e+01
  2388.000   1.21926133e+01
  2388.500   1.21839643e+01
  2389.000   1.21753281e+01
  2389.500   1.21667045e+01
  2390.000   1.21580936e+01
  2390.500   1.21494954e+01
  2391.000   1.21409098e+01
  2391.500   1.21323368e+01
  2392.000   1.21237765e+01
  2392.500   1.21152286e+01
  2393.000   1.21066933e+01
  2393.500   1.20981706e+01
  2394.000   1.20896603e+01
  2394.500   1.20811625e+01
  2395.000   1.20726772e+01
  2395.500   1.20642043e+01
  2396.000   1.20557438e+01
  2396.500   1.20472957e+01
  2397.000   1.20388599e+01
  2397.500   1.20304365e+01
  2398.000   1.20220254e+01
  2398.500   1.20136266e+01
  2399.000   1.20052401e+01
  2399.500   1.19968659e+01
  2400.000   1.19885038e+01
  2400.500   1.19801540e+01
  2401.000   1.19718164e+01
  2401.500   1.19634909e+01
  2402.000   1.19551776e+01
  2402.500   1.19468764e+01
  2403.000   1.19385873e+01
  2403.500   1.19303103e+01
  2404.000   1.19220454e+01
  2404.500   1.19137925e+01
  2405.000   1.19055516e+01
  2405.500   1.18973227e+01
  2406.000   1.18891058e+01
  2406.500   1.18809009e+01
  2407.000   1.18727079e+01
  2407.500   1.18645268e+01
  2408.000   1.18563576e+01
  2408.500   1.18482003e+01
  2409.000   1.18400548e+01
  2409.500   1.18319211e+01
  2410.000   1.18237993e+01
  2410.500   1.18156893e+01
  2411.000   1.18075910e+01
  2411.500   1.17995045e+01
  2412.000   1.17914297e+01
  2412.500   1.17833666e+01
  2413.000   1.17753152e+01
  2413.500   1.17672755e+01
  2414.000   1.17592474e+01
  2414.500   1.17512310e+01
  2415.000   1.17432261e+01
  2415.500   1.17352329e+01
  2416.000   1.17272512e+01
  2416.500   1.17192811e+01
  2417.000   1.17113225e+01
  2417.500   1.17033754e+01
  2418.000   1.16954399e+01
  2418.500   1.16875157e+01
  2419.000   1.16796031e+01
  2419.500   1.16717019e+01
  2420.000   1.16638121e+01
  2420.500   1.16559336e+01
  2421.000   1.16480666e+01
  2421.500   1.16402109e+01
  2422.000   1.16323666e+01
  2422.500   1.16245335e+01
  2423.000   1.16167118e+01
  2423.500   1.16089014e+01
  2424.000   1.16011022e+01
  2424.500   1.15933143e+01
  2425.000   1.15855375e+01
  2425.500   1.15777720e+01
  2426.000   1.15700177e+01
  2426.500   1.15622746e+01
  2427.000   1.15545426e+01
  2427.500   1.15468217e+01
  2428.000   1.15391119e+01
  2428.500   1.15314133e+01
  2429.000   1.15237257e+01
  2429.500   1.15160491e+01
  2430.000   1.15083837e+01
  2430.500   1.15007292e+01
  2431.000   1.14930857e+01
  2431.500   1.14854532e+01
  2432.000   1.14778317e+01
  2432.500   1.14702212e+01
  2433.000   1.14626216e+01
  2433.500   1.14550328e+01
  2434.000   1.14474550e+01
  2434.500   1.14398881e+01
  2435.000   1.14323320e+01
  2435.500   1.14247868e+01
  2436.000   1.14172524e+01
  2436.500   1.14097288e+01
  2437.000   1.14022159e+01
  2437.500   1.13947139e+01
  2438.000   1.13872226e+01
  2438.500   1.13797421e+01
  2439.000   1.13722723e+01
  2439.500   1.13648131e+01
  2440.000   1.13573647e+01
  2440.500   1.13499269e+01
  2441.000   1.13424998e+01
  2441.500   1.13350834e+01
  2442.000   1.13276775e+01
  2442.500   1.13202823e+01
  2443.000   1.13128976e+01
  2443.500   1.13055235e+01
  2444.000   1.12981599e+01
  2444.500   1.12908069e+01
  2445.000   1.12834644e+01
  2445.500   1.12761324e+01
  2446.000   1.12688109e+01
  2446.500   1.12614999e+01
  2447.000   1.12541993e+01
  2447.500   1.12469092e+01
  2448.000   1.12396294e+01
  2448.500   1.12323601e+01
  2449.000   1.12251012e+01
  2449.500   1.12178526e+01
  2450.000   1.12106144e+01
  2450.500   1.12033865e+01
  2451.000   1.11961689e+01
  2451.500   1.11889617e+01
  2452.000   1.11817647e+01
  2452.500   1.11745780e+01
  2453.000   1.11674016e+01
  2453.500   1.11602354e+01
  2454.000   1.11530795e+01
  2454.500   1.11459337e+01
  2455.000   1.11387982e+01
  2455.500   1.11316728e+01
  2456.000   1.11245576e+01
  2456.500   1.11174525e+01
  2457.000   1.11103576e+01
  2457.500   1.11032728e+01
  2458.000   1.10961981e+01
  2458.500   1.10891335e+01
  2459.000   1.10820789e+01
  2459.500   1.10750344e+01
  2460.000   1.10680000e+01
  2460.500   1.10609755e+01
  2461.000   1.10539611e+01
  2461.500   1.10469567e+01
  2462.000   1.10399623e+01
  2462.500   1.10329778e+01
  2463.000   1.10260033e+01
  2463.500   1.10190387e+01
  2464.000   1.10120841e+01
  2464.500   1.10051393e+01
  2465.000   1.09982044e+01
  2465.500   1.09912795e+01
  2466.000   1.09843643e+01
  2466.500   1.09774591e+01
  2467.000   1.09705636e+01
  2467.500   1.09636780e+01
  2468.000   1.09568022e+01
  2468.500   1.09499362e+01
  2469.000   1.09430799e+01
  2469.500   1.09362334e+01
  2470.000   1.09293967e+01
  2470.500   1.09225697e+01
  2471.000   1.09157524e+01
  2471.500   1.09089448e+01
  2472.000   1.09021469e+01
  2472.500   1.08953587e+01
  2473.000   1.08885801e+01
  2473.500   1.08818112e+01
  2474.000   1.08750519e+01
  2474.500   1.08683022e+01
  2475.000   1.08615622e+01
  2475.500   1.08548317e+01
  2476.000   1.08481109e+01
  2476.500   1.08413995e+01
  2477.000   1.08346978e+01
  2477.500   1.08280056e+01
  2478.000   1.08213229e+01
  2478.500   1.08146497e+01
  2479.000   1.08079860e+01
  2479.500   1.08013318e+01
  2480.000   1.07946870e+01
  2480.500   1.07880518e+01
  2481.000   1.07814259e+01
  2481.500   1.07748095e+01
  2482.000   1.07682025e+01
  2482.500   1.07616049e+01
  2483.000   1.07550168e+01
  2483.500   1.07484379e+01
  2484.000   1.07418685e+01
  2484.500   1.07353084e+01
  2485.000   1.07287576e+01
  2485.500   1.07222162e+01
  2486.000   1.07156841e+01
  2486.500   1.07091612e+01
  2487.000   1.07026477e+01
  2487.500   1.06961435e+01
  2488.000   1.06896485e+01
  2488.500   1.06831627e+01
  2489.000   1.06766862e+01
  2489.500   1.06702189e+01
  2490.000   1.06637608e+01
  2490.500   1.06573120e+01
  2491.000   1.06508723e+01
  2491.500   1.06444417e+01
  2492.000   1.06380204e+01
  2492.500   1.06316082e+01
  2493.000   1.06252051e+01
  2493.500   1.06188112e+01
  2494.000   1.06124263e+01
  2494.500   1.06060506e+01
  2495.000   1.05996839e+01
  2495.500   1.05933264e+01
  2496.000   1.05869779e+01
  2496.500   1.05806384e+01
  2497.000   1.05743080e+01
  2497.500   1.05679866e+01
  2498.000   1.05616742e+01
  2498.500   1.05553709e+01
  2499.000   1.05490765e+01
  2499.500   1.05427911e+01
  2500.000   1.05365147e+01
  2500.500   1.05302472e+01
  2501.000   1.05239887e+01
  2501.500   1.05177391e+01
  2502.000   1.05114984e+01
  2502.500   1.05052667e+01
  2503.000   1.04990438e+01
  2503.500   1.04928298e+01
  2504.000   1.04866248e+01
  2504.500   1.04804285e+01
  2505.000   1.04742411e+01
  2505.500   1.04680626e+01
  2506.000   1.04618929e+01
  2506.500   1.04557320e+01
  2507.000   1.04495800e+01
  2507.500   1.04434367e+01
  2508.000   1.04373022e+01
  2508.500   1.04311765e+01
  2509.000   1.04250595e+01
  2509.500   1.04189513e+01
  2510.000   1.04128519e+01
  2510.500   1.04067611e+01
  2511.000   1.04006791e+01
  2511.500   1.03946058e+01
  2512.000   1.03885412e+01
  2512.500   1.03824853e+01
  2513.000   1.03764381e+01
  2513.500   1.03703995e+01
  2514.000   1.03643696e+01
  2514.500   1.03583484e+01
  2515.000   1.03523358e+01
  2515.500   1.03463317e+01
  2516.000   1.03403364e+01
  2516.500   1.03343496e+01
  2517.000   1.03283714e+01
  2517.500   1.03224018e+01
  2518.000   1.03164407e+01
  2518.500   1.03104883e+01
  2519.000   1.03045443e+01
  2519.500   1.02986090e+01
  2520.000   1.02926821e+01
  2520.500   1.02867638e+01
  2521.000   1.02808540e+01
  2521.500   1.02749526e+01
  2522.000   1.02690598e+01
  2522.500   1.02631755e+01
  2523.000   1.02572996e+01
  2523.500   1.02514322e+01
  2524.000   1.02455732e+01
  2524.500   1.02397227e+01
  2525.000   1.02338806e+01
  2525.500   1.02280470e+01
  2526.000   1.02222217e+01
  2526.500   1.02164049e+01
  2527.000   1.02105964e+01
  2527.500   1.02047963e+01
  2528.000   1.01990046e+01
  2528.500   1.01932213e+01
  2529.000   1.01874463e+01
  2529.500   1.01816797e+01
  2530.000   1.01759214e+01
  2530.500   1.01701714e+01
  2531.000   1.01644298e+01
  2531.500   1.01586964e+01
  2532.000   1.01529714e+01
  2532.500   1.01472546e+01
  2533.000   1.01415461e+01
  2533.500   1.01358459e+01
  2534.000   1.01301540e+01
  2534.500   1.01244703e+01
  2535.000   1.01187949e+01
  2535.500   1.01131276e+01
  2536.000   1.01074687e+01
  2536.500   1.01018179e+01
  2537.000   1.00961753e+01
  2537.500   1.00905410e+01
  2538.000   1.00849148e+01
  2538.500   1.00792968e+01
  2539.000   1.00736870e+01
  2539.500   1.00680853e+01
  2540.000   1.00624918e+01
  2540.500   1.00569065e+01
  2541.000   1.00513293e+01
  2541.500   1.00457602e+01
  2542.000   1.00401992e+01
  2542.500   1.00346464e+01
  2543.000   1.00291016e+01
  2543.500   1.00235650e+01
  2544.000   1.00180364e+01
  2544.500   1.00125160e+01
  2545.000   1.00070035e+01
  2545.500   1.00014992e+01
  2546.000   9.99600291e+00
  2546.500   9.99051466e+00
  2547.000   9.98503445e+00
  2547.500   9.97956227e+00
  2548.000   9.97409811e+00
  2548.500   9.96864197e+00
  2549.000   9.96319383e+00
  2549.500   9.95775369e+00
  2550.000   9.95232154e+00
  2550.500   9.94689738e+00
  2551.000   9.94148118e+00
  2551.500   9.93607296e+00
  2552.000   9.93067269e+00
  2552.500   9.92528037e+00
  2553.000   9.91989600e+00
  2553.500   9.91451956e+00
  2554.000   9.90915104e+00
  2554.500   9.90379045e+00
  2555.000   9.89843777e+00
  2555.500   9.89309300e+00
  2556.000   9.88775612e+00
  2556.500   9.88242714e+00
  2557.000   9.87710603e+00
  2557.500   9.87179280e+00
  2558.000   9.86648744e+00
  2558.500   9.86118994e+00
  2559.000   9.85590030e+00
  2559.500   9.85061850e+00
  2560.000   9.84534454e+00
  2560.500   9.84007841e+00
  2561.000   9.83482010e+00
  2561.500   9.82956961e+00
  2562.000   9.82432693e+00
  2562.500   9.81909206e+00
  2563.000   9.81386498e+00
  2563.500   9.80864569e+00
  2564.000   9.80343419e+00
  2564.500   9.79823046e+00
  2565.000   9.79303450e+00
  2565.500   9.78784630e+00
  2566.000   9.78266585e+00
  2566.500   9.77749316e+00
  2567.000   9.77232820e+00
  2567.500   9.76717099e+00
  2568.000   9.76202149e+00
  2568.500   9.75687973e+00
  2569.000   9.75174567e+00
  2569.500   9.74661933e+00
  2570.000   9.74150069e+00
  2570.500   9.73638974e+00
  2571.000   9.73128649e+00
  2571.500   9.72619091e+00
  2572.000   9.72110302e+00
  2572.500   9.71602279e+00
  2573.000   9.71095023e+00
  2573.500   9.70588533e+00
  2574.000   9.70082808e+00
  2574.500   9.69577847e+00
  2575.000   9.69073651e+00
  2575.500   9.68570218e+00
  2576.000   9.68067547e+00
  2576.500   9.67565639e+00
  2577.000   9.67064492e+00
  2577.500   9.66564106e+00
  2578.000   9.66064481e+00
  2578.500   9.65565615e+00
  2579.000   9.65067509e+00
  2579.500   9.64570161e+00
  2580.000   9.64073571e+00
  2580.500   9.63577739e+00
  2581.000   9.63082664e+00
  2581.500   9.62588345e+00
  2582.000   9.62094781e+00
  2582.500   9.61601973e+00
  2583.000   9.61109920e+00
  2583.500   9.60618621e+00
  2584.000   9.60128075e+00
  2584.500   9.59638283e+00
  2585.000   9.59149243e+00
  2585.500   9.58660955e+00
  2586.000   9.58173418e+00
  2586.500   9.57686632e+00
  2587.000   9.57200597e+00
  2587.500   9.56715311e+00
  2588.000   9.56230775e+00
  2588.500   9.55746988e+00
  2589.000   9.55263949e+00
  2589.500   9.54781658e+00
  2590.000   9.54300114e+00
  2590.500   9.53819317e+00
  2591.000   9.53339267e+00
  2591.500   9.52859962e+00
  2592.000   9.52381403e+00
  2592.500   9.51903588e+00
  2593.000   9.51426518e+00
  2593.500   9.50950192e+00
  2594.000   9.50474609e+00
  2594.500   9.49999769e+00
  2595.000   9.49525672e+00
  2595.500   9.49052317e+00
  2596.000   9.48579703e+00
  2596.500   9.48107831e+00
  2597.000   9.47636699e+00
  2597.500   9.47166308e+00
  2598.000   9.46696656e+00
  2598.500   9.46227744e+00
  2599.000   9.45759571e+00
  2599.500   9.45292136e+00
  2600.000   9.44825439e+00
  2600.500   9.44359480e+00
  2601.000   9.43894258e+00
  2601.500   9.43429773e+00
  2602.000   9.42966025e+00
  2602.500   9.42503012e+00
  2603.000   9.42040735e+00
  2603.500   9.41579194e+00
  2604.000   9.41118387e+00
  2604.500   9.40658314e+00
  2605.000   9.40198976e+00
  2605.500   9.39740371e+00
  2606.000   9.39282500e+00
  2606.500   9.38825361e+00
  2607.000   9.38368955e+00
  2607.500   9.37913281e+00
  2608.000   9.37458339e+00
  2608.500   9.37004128e+00
  2609.000   9.36550648e+00
  2609.500   9.36097899e+00
  2610.000   9.35645881e+00
  2610.500   9.35194592e+00
  2611.000   9.34744033e+00
  2611.500   9.34294204e+00
  2612.000   9.33845103e+00
  2612.500   9.33396731e+00
  2613.000   9.32949088e+00
  2613.500   9.32502172e+00
  2614.000   9.32055984e+00
  2614.500   9.31610524e+00
  2615.000   9.31165790e+00
  2615.500   9.30721784e+00
  2616.000   9.30278503e+00
  2616.500   9.29835949e+00
  2617.000   9.29394121e+00
  2617.500   9.28953019e+00
  2618.000   9.28512641e+00
  2618.500   9.28072989e+00
  2619.000   9.27634062e+00
  2619.500   9.27195859e+00
  2620.000   9.26758380e+00
  2620.500   9.26321625e+00
  2621.000   9.25885593e+00
  2621.500   9.25450285e+00
  2622.000   9.25015701e+00
  2622.500   9.24581839e+00
  2623.000   9.24148699e+00
  2623.500   9.23716282e+00
  2624.000   9.23284588e+00
  2624.500   9.22853615e+00
  2625.000   9.22423364e+00
  2625.500   9.21993834e+00
  2626.000   9.21565025e+00
  2626.500   9.21136938e+00
  2627.000   9.20709571e+00
  2627.500   9.20282925e+00
  2628.000   9.19856999e+00
  2628.500   9.19431794e+00
  2629.000   9.19007308e+00
  2629.500   9.18583543e+00
  2630.000   9.18160497e+00
  2630.500   9.17738170e+00
  2631.000   9.17316562e+00
  2631.500   9.16895674e+00
  2632.000   9.16475504e+00
  2632.500   9.16056053e+00
  2633.000   9.15637321e+00
  2633.500   9.15219307e+00
  2634.000   9.14802011e+00
  2634.500   9.14385433e+00
  2635.000   9.13969574e+00
  2635.500   9.13554432e+00
  2636.000   9.13140007e+00
  2636.500   9.12726300e+00
  2637.000   9.12313311e+00
  2637.500   9.11901039e+00
  2638.000   9.11489484e+00
  2638.500   9.11078645e+00
  2639.000   9.10668524e+00
  2639.500   9.10259120e+00
  2640.000   9.09850432e+00
  2640.500   9.09442460e+00
  2641.000   9.09035206e+00
  2641.500   9.08628667e+00
  2642.000   9.08222845e+00
  2642.500   9.07817739e+00
  2643.000   9.07413349e+00
  2643.500   9.07009675e+00
  2644.000   9.06606718e+00
  2644.500   9.06204476e+00
  2645.000   9.05802950e+00
  2645.500   9.05402139e+00
  2646.000   9.05002045e+00
  2646.500   9.04602666e+00
  2647.000   9.04204003e+00
  2647.500   9.03806055e+00
  2648.000   9.03408823e+00
  2648.500   9.03012306e+00
  2649.000   9.02616505e+00
  2649.500   9.02221420e+00
  2650.000   9.01827049e+00
  2650.500   9.01433395e+00
  2651.000   9.01040456e+00
  2651.500   9.00648232e+00
  2652.000   9.00256723e+00
  2652.500   8.99865930e+00
  2653.000   8.99475853e+00
  2653.500   8.99086491e+00
  2654.000   8.98697844e+00
  2654.500   8.98309913e+00
  2655.000   8.97922698e+00
  2655.500   8.97536198e+00
  2656.000   8.97150414e+00
  2656.500   8.96765345e+00
  2657.000   8.96380992e+00
  2657.500   8.95997355e+00
  2658.000   8.95614434e+00
  2658.500   8.95232228e+00
  2659.000   8.94850738e+00
  2659.500   8.94469965e+00
  2660.000   8.94089907e+00
  2660.500   8.93710566e+00
  2661.000   8.93331941e+00
  2661.500   8.92954032e+00
  2662.000   8.92576839e+00
  2662.500   8.92200364e+00
  2663.000   8.91824604e+00
  2663.500   8.91449562e+00
  2664.000   8.91075236e+00
  2664.500   8.90701628e+00
  2665.000   8.90328736e+00
  2665.500   8.89956562e+00
  2666.000   8.89585105e+00
  2666.500   8.89214365e+00
  2667.000   8.88844343e+00
  2667.500   8.88475039e+00
  2668.000   8.88106453e+00
  2668.500   8.87738585e+00
  2669.000   8.87371435e+00
  2669.500   8.87005004e+00
  2670.000   8.86639291e+00
  2670.500   8.86274297e+00
  2671.000   8.85910022e+00
  2671.500   8.85546466e+00
  2672.000   8.85183630e+00
  2672.500   8.84821513e+00
  2673.000   8.84460116e+00
  2673.500   8.84099439e+00
  2674.000   8.83739482e+00
  2674.500   8.83380245e+00
  2675.000   8.83021729e+00
  2675.500   8.82663934e+00
  2676.000   8.82306860e+00
  2676.500   8.81950507e+00
  2677.000   8.81594876e+00
  2677.500   8.81239967e+00
  2678.000   8.80885780e+00
  2678.500   8.80532315e+00
  2679.000   8.80179573e+00
  2679.500   8.79827554e+00
  2680.000   8.79476258e+00
  2680.500   8.79125685e+00
  2681.000   8.78775836e+00
  2681.500   8.78426712e+00
  2682.000   8.78078311e+00
  2682.500   8.77730635e+00
  2683.000   8.77383685e+00
  2683.500   8.77037459e+00
  2684.000   8.76691959e+00
  2684.500   8.76347185e+00
  2685.000   8.76003138e+00
  2685.500   8.75659816e+00
  2686.000   8.75317222e+00
  2686.500   8.74975356e+00
  2687.000   8.74634216e+00
  2687.500   8.74293805e+00
  2688.000   8.73954123e+00
  2688.500   8.73615169e+00
  2689.000   8.73276944e+00
  2689.500   8.72939449e+00
  2690.000   8.72602684e+00
  2690.500   8.72266649e+00
  2691.000   8.71931344e+00
  2691.500   8.71596771e+00
  2692.000   8.71262930e+00
  2692.500   8.70929820e+00
  2693.000   8.70597443e+00
  2693.500   8.70265799e+00
  2694.000   8.69934888e+00
  2694.500   8.69604711e+00
  2695.000   8.69275268e+00
  2695.500   8.68946560e+00
  2696.000   8.68618586e+00
  2696.500   8.68291349e+00
  2697.000   8.67964847e+00
  2697.500   8.67639082e+00
  2698.000   8.67314054e+00
  2698.500   8.66989763e+00
  2699.000   8.66666211e+00
  2699.500   8.66343397e+00
  2700.000   8.66021322e+00
  2700.500   8.65699986e+00
  2701.000   8.65379391e+00
  2701.500   8.65059536e+00
  2702.000   8.64740423e+00
  2702.500   8.64422051e+00
  2703.000   8.64104422e+00
  2703.500   8.63787535e+00
  2704.000   8.63471391e+00
  2704.500   8.63155992e+00
  2705.000   8.62841337e+00
  2705.500   8.62527428e+00
  2706.000   8.62214263e+00
  2706.500   8.61901846e+00
  2707.000   8.61590175e+00
  2707.500   8.61279252e+00
  2708.000   8.60969077e+00
  2708.500   8.60659650e+00
  2709.000   8.60350973e+00
  2709.500   8.60043047e+00
  2710.000   8.59735870e+00
  2710.500   8.59429445e+00
  2711.000   8.59123773e+00
  2711.500   8.58818852e+00
  2712.000   8.58514686e+00
  2712.500   8.58211273e+00
  2713.000   8.57908615e+00
  2713.500   8.57606712e+00
  2714.000   8.57305565e+00
  2714.500   8.57005176e+00
  2715.000   8.56705544e+00
  2715.500   8.56406670e+00
  2716.000   8.56108555e+00
  2716.500   8.55811199e+00
  2717.000   8.55514605e+00
  2717.500   8.55218771e+00
  2718.000   8.54923700e+00
  2718.500   8.54629391e+00
  2719.000   8.54335846e+00
  2719.500   8.54043065e+00
  2720.000   8.53751049e+00
  2720.500   8.53459799e+00
  2721.000   8.53169316e+00
  2721.500   8.52879600e+00
  2722.000   8.52590653e+00
  2722.500   8.52302474e+00
  2723.000   8.52015066e+00
  2723.500   8.51728429e+00
  2724.000   8.51442563e+00
  2724.500   8.51157470e+00
  2725.000   8.50873151e+00
  2725.500   8.50589605e+00
  2726.000   8.50306835e+00
  2726.500   8.50024841e+00
  2727.000   8.49743624e+00
  2727.500   8.49463185e+00
  2728.000   8.49183524e+00
  2728.500   8.48904644e+00
  2729.000   8.48626544e+00
  2729.500   8.48349225e+00
  2730.000   8.48072689e+00
  2730.500   8.47796937e+00
  2731.000   8.47521969e+00
  2731.500   8.47247786e+00
  2732.000   8.46974390e+00
  2732.500   8.46701782e+00
  2733.000   8.46429961e+00
  2733.500   8.46158931e+00
  2734.000   8.45888690e+00
  2734.500   8.45619241e+00
  2735.000   8.45350585e+00
  2735.500   8.45082722e+00
  2736.000   8.44815653e+00
  2736.500   8.44549381e+00
  2737.000   8.44283905e+00
  2737.500   8.44019226e+00
  2738.000   8.43755347e+00
  2738.500   8.43492268e+00
  2739.000   8.43229989e+00
  2739.500   8.42968513e+00
  2740.000   8.42707840e+00
  2740.500   8.42447972e+00
  2741.000   8.42188909e+00
  2741.500   8.41930653e+00
  2742.000   8.41673205e+00
  2742.500   8.41416566e+00
  2743.000   8.41160737e+00
  2743.500   8.40905719e+00
  2744.000   8.40651514e+00
  2744.500   8.40398123e+00
  2745.000   8.40145547e+00
  2745.500   8.39893787e+00
  2746.000   8.39642845e+00
  2746.500   8.39392722e+00
  2747.000   8.39143418e+00
  2747.500   8.38894936e+00
  2748.000   8.38647276e+00
  2748.500   8.38400440e+00
  2749.000   8.38154429e+00
  2749.500   8.37909245e+00
  2750.000   8.37664888e+00
  2750.500   8.37421361e+00
  2751.000   8.37178664e+00
  2751.500   8.36936798e+00
  2752.000   8.36695766e+00
  2752.500   8.36455568e+00
  2753.000   8.36216206e+00
  2753.500   8.35977681e+00
  2754.000   8.35739995e+00
  2754.500   8.35503149e+00
  2755.000   8.35267144e+00
  2755.500   8.35031983e+00
  2756.000   8.34797665e+00
  2756.500   8.34564193e+00
  2757.000   8.34331569e+00
  2757.500   8.34099793e+00
  2758.000   8.33868868e+00
  2758.500   8.33638794e+00
  2759.000   8.33409573e+00
  2759.500   8.33181207e+00
  2760.000   8.32953698e+00
  2760.500   8.32727046e+00
  2761.000   8.32501253e+00
  2761.500   8.32276322e+00
  2762.000   8.32052252e+00
  2762.500   8.31829047e+00
  2763.000   8.31606708e+00
  2763.500   8.31385236e+00
  2764.000   8.31164632e+00
  2764.500   8.30944900e+00
  2765.000   8.30726039e+00
  2765.500   8.30508052e+00
  2766.000   8.30290941e+00
  2766.500   8.30074707e+00
  2767.000   8.29859352e+00
  2767.500   8.29644877e+00
  2768.000   8.29431285e+00
  2768.500   8.29218576e+00
  2769.000   8.29006754e+00
  2769.500   8.28795819e+00
  2770.000   8.28585773e+00
  2770.500   8.28376618e+00
  2771.000   8.28168356e+00
  2771.500   8.27960989e+00
  2772.000   8.27754519e+00
  2772.500   8.27548946e+00
  2773.000   8.27344274e+00
  2773.500   8.27140504e+00
  2774.000   8.26937638e+00
  2774.500   8.26735677e+00
  2775.000   8.26534625e+00
  2775.500   8.26334482e+00
  2776.000   8.26135250e+00
  2776.500   8.25936932e+00
  2777.000   8.25739529e+00
  2777.500   8.25543044e+00
  2778.000   8.25347478e+00
  2778.500   8.25152833e+00
  2779.000   8.24959112e+00
  2779.500   8.24766316e+00
  2780.000   8.24574448e+00
  2780.500   8.24383509e+00
  2781.000   8.24193502e+00
  2781.500   8.24004428e+00
  2782.000   8.23816290e+00
  2782.500   8.23629090e+00
  2783.000   8.23442829e+00
  2783.500   8.23257511e+00
  2784.000   8.23073137e+00
  2784.500   8.22889710e+00
  2785.000   8.22707231e+00
  2785.500   8.22525703e+00
  2786.000   8.22345128e+00
  2786.500   8.22165508e+00
  2787.000   8.21986846e+00
  2787.500   8.21809143e+00
  2788.000   8.21632402e+00
  2788.500   8.21456626e+00
  2789.000   8.21281816e+00
  2789.500   8.21107976e+00
  2790.000   8.20935106e+00
  2790.500   8.20763210e+00
  2791.000   8.20592291e+00
  2791.500   8.20422349e+00
  2792.000   8.20253389e+00
  2792.500   8.20085411e+00
  2793.000   8.19918420e+00
  2793.500   8.19752416e+00
  2794.000   8.19587403e+00
  2794.500   8.19423383e+00
  2795.000   8.19260359e+00
  2795.500   8.19098333e+00
  2796.000   8.18937307e+00
  2796.500   8.18777285e+00
  2797.000   8.18618268e+00
  2797.500   8.18460260e+00
  2798.000   8.18303263e+00
  2798.500   8.18147279e+00
  2799.000   8.17992312e+00
  2799.500   8.17838363e+00
  2800.000   8.17685436e+00
  2800.500   8.17533534e+00
  2801.000   8.17382658e+00
  2801.500   8.17232813e+00
  2802.000   8.17083999e+00
  2802.500   8.16936221e+00
  2803.000   8.16789481e+00
  2803.500   8.16643783e+00
  2804.000   8.16499127e+00
  2804.500   8.16355519e+00
  2805.000   8.16212959e+00
  2805.500   8.16071452e+00
  2806.000   8.15931001e+00
  2806.500   8.15791607e+00
  2807.000   8.15653275e+00
  2807.500   8.15516007e+00
  2808.000   8.15379806e+00
  2808.500   8.15244675e+00
  2809.000   8.15110617e+00
  2809.500   8.14977635e+00
  2810.000   8.14845732e+00
  2810.500   8.14714912e+00
  2811.000   8.14585178e+00
  2811.500   8.14456531e+00
  2812.000   8.14328977e+00
  2812.500   8.14202518e+00
  2813.000   8.14077156e+00
  2813.500   8.13952896e+00
  2814.000   8.13829741e+00
  2814.500   8.13707693e+00
  2815.000   8.13586757e+00
  2815.500   8.13466935e+00
  2816.000   8.13348231e+00
  2816.500   8.13230648e+00
  2817.000   8.13114189e+00
  2817.500   8.12998859e+00
  2818.000   8.12884659e+00
  2818.500   8.12771595e+00
  2819.000   8.12659669e+00
  2819.500   8.12548884e+00
  2820.000   8.12439245e+00
  2820.500   8.12330754e+00
  2821.000   8.12223416e+00
  2821.500   8.12117234e+00
  2822.000   8.12012211e+00
  2822.500   8.11908352e+00
  2823.000   8.11805659e+00
  2823.500   8.11704137e+00
  2824.000   8.11603789e+00
  2824.500   8.11504619e+00
  2825.000   8.11406631e+00
  2825.500   8.11309829e+00
  2826.000   8.11214216e+00
  2826.500   8.11119796e+00
  2827.000   8.11026573e+00
  2827.500   8.10934551e+00
  2828.000   8.10843734e+00
  2828.500   8.10754126e+00
  2829.000   8.10665730e+00
  2829.500   8.10578552e+00
  2830.000   8.10492594e+00
  2830.500   8.10407861e+00
  2831.000   8.10324357e+00
  2831.500   8.10242086e+00
  2832.000   8.10161052e+00
  2832.500   8.10081259e+00
  2833.000   8.10002713e+00
  2833.500   8.09925416e+00
  2834.000   8.09849372e+00
  2834.500   8.09774588e+00
  2835.000   8.09701066e+00
  2835.500   8.09628810e+00
  2836.000   8.09557827e+00
  2836.500   8.09488118e+00
  2837.000   8.09419690e+00
  2837.500   8.09352547e+00
  2838.000   8.09286693e+00
  2838.500   8.09222132e+00
  2839.000   8.09158870e+00
  2839.500   8.09096910e+00
  2840.000   8.09036258e+00
  2840.500   8.08976917e+00
  2841.000   8.08918894e+00
  2841.500   8.08862191e+00
  2842.000   8.08806815e+00
  2842.500   8.08752770e+00
  2843.000   8.08700061e+00
  2843.500   8.08648692e+00
  2844.000   8.08598668e+00
  2844.500   8.08549995e+00
  2845.000   8.08502677e+00
  2845.500   8.08456720e+00
  2846.000   8.08412127e+00
  2846.500   8.08368905e+00
  2847.000   8.08327059e+00
  2847.500   8.08286593e+00
  2848.000   8.08247512e+00
  2848.500   8.08209823e+00
  2849.000   8.08173529e+00
  2849.500   8.08138637e+00
  2850.000   8.08105151e+00
  2850.500   8.08073078e+00
  2851.000   8.08042421e+00
  2851.500   8.08013187e+00
  2852.000   8.07985382e+00
  2852.500   8.07959010e+00
  2853.000   8.07934077e+00
  2853.500   8.07910589e+00
  2854.000   8.07888552e+00
  2854.500   8.07867970e+00
  2855.000   8.07848850e+00
  2855.500   8.07831197e+00
  2856.000   8.07815017e+00
  2856.500   8.07800316e+00
  2857.000   8.07787100e+00
  2857.500   8.07775374e+00
  2858.000   8.07765145e+00
  2858.500   8.07756419e+00
  2859.000   8.07749200e+00
  2859.500   8.07743497e+00
  2860.000   8.07739314e+00
  2860.500   8.07736657e+00
  2861.000   8.07735534e+00
  2861.500   8.07735949e+00
  2862.000   8.07737910e+00
  2862.500   8.07741423e+00
  2863.000   8.07746493e+00
  2863.500   8.07753128e+00
  2864.000   8.07761334e+00
  2864.500   8.07771117e+00
  2865.000   8.07782484e+00
  2865.500   8.07795441e+00
  2866.000   8.07809995e+00
  2866.500   8.07826153e+00
  2867.000   8.07843921e+00
  2867.500   8.07863307e+00
  2868.000   8.07884316e+00
  2868.500   8.07906957e+00
  2869.000   8.07931235e+00
  2869.500   8.07957157e+00
  2870.000   8.07984732e+00
  2870.500   8.08013965e+00
  2871.000   8.08044864e+00
  2871.500   8.08077436e+00
  2872.000   8.08111689e+00
  2872.500   8.08147629e+00
  2873.000   8.08185263e+00
  2873.500   8.08224600e+00
  2874.000   8.08265647e+00
  2874.500   8.08308410e+00
  2875.000   8.08352899e+00
  2875.500   8.08399119e+00
  2876.000   8.08447079e+00
  2876.500   8.08496787e+00
  2877.000   8.08548250e+00
  2877.500   8.08601476e+00
  2878.000   8.08656473e+00
  2878.500   8.08713249e+00
  2879.000   8.08771812e+00
  2879.500   8.08832170e+00
  2880.000   8.08894330e+00
  2880.500   8.08958302e+00
  2881.000   8.09024093e+00
  2881.500   8.09091711e+00
  2882.000   8.09161166e+00
  2882.500   8.09232465e+00
  2883.000   8.09305616e+00
  2883.500   8.09380629e+00
  2884.000   8.09457512e+00
  2884.500   8.09536273e+00
  2885.000   8.09616922e+00
  2885.500   8.09699466e+00
  2886.000   8.09783915e+00
  2886.500   8.09870278e+00
  2887.000   8.09958564e+00
  2887.500   8.10048781e+00
  2888.000   8.10140940e+00
  2888.500   8.10235048e+00
  2889.000   8.10331115e+00
  2889.500   8.10429151e+00
  2890.000   8.10529165e+00
  2890.500   8.10631166e+00
  2891.000   8.10735165e+00
  2891.500   8.10841169e+00
  2892.000   8.10949190e+00
  2892.500   8.11059236e+00
  2893.000   8.11171319e+00
  2893.500   8.11285446e+00
  2894.000   8.11401630e+00
  2894.500   8.11519878e+00
  2895.000   8.11640203e+00
  2895.500   8.11762613e+00
  2896.000   8.11887119e+00
  2896.500   8.12013731e+00
  2897.000   8.12142461e+00
  2897.500   8.12273317e+00
  2898.000   8.12406312e+00
  2898.500   8.12541455e+00
  2899.000   8.12678757e+00
  2899.500   8.12818229e+00
  2900.000   8.12959882e+00
  2900.500   8.13103727e+00
  2901.000   8.13249775e+00
  2901.500   8.13398038e+00
  2902.000   8.13548525e+00
  2902.500   8.13701250e+00
  2903.000   8.13856222e+00
  2903.500   8.14013454e+00
  2904.000   8.14172958e+00
  2904.500   8.14334744e+00
  2905.000   8.14498825e+00
  2905.500   8.14665212e+00
  2906.000   8.14833918e+00
  2906.500   8.15004955e+00
  2907.000   8.15178334e+00
  2907.500   8.15354068e+00
  2908.000   8.15532169e+00
  2908.500   8.15712650e+00
  2909.000   8.15895523e+00
  2909.500   8.16080800e+00
  2910.000   8.16268496e+00
  2910.500   8.16458621e+00
  2911.000   8.16651190e+00
  2911.500   8.16846215e+00
  2912.000   8.17043710e+00
  2912.500   8.17243687e+00
  2913.000   8.17446160e+00
  2913.500   8.17651143e+00
  2914.000   8.17858649e+00
  2914.500   8.18068691e+00
  2915.000   8.18281283e+00
  2915.500   8.18496440e+00
  2916.000   8.18714176e+00
  2916.500   8.18934503e+00
  2917.000   8.19157437e+00
  2917.500   8.19382992e+00
  2918.000   8.19611183e+00
  2918.500   8.19842023e+00
  2919.000   8.20075528e+00
  2919.500   8.20311713e+00
  2920.000   8.20550591e+00
  2920.500   8.20792179e+00
  2921.000   8.21036492e+00
  2921.500   8.21283545e+00
  2922.000   8.21533352e+00
  2922.500   8.21785931e+00
  2923.000   8.22041296e+00
  2923.500   8.22299463e+00
  2924.000   8.22560448e+00
  2924.500   8.22824268e+00
  2925.000   8.23090938e+00
  2925.500   8.23360474e+00
  2926.000   8.23632894e+00
  2926.500   8.23908214e+00
  2927.000   8.24186450e+00
  2927.500   8.24467620e+00
  2928.000   8.24751740e+00
  2928.500   8.25038827e+00
  2929.000   8.25328900e+00
  2929.500   8.25621974e+00
  2930.000   8.25918069e+00
  2930.500   8.26217201e+00
  2931.000   8.26519389e+00
  2931.500   8.26824651e+00
  2932.000   8.27133004e+00
  2932.500   8.27444467e+00
  2933.000   8.27759059e+00
  2933.500   8.28076798e+00
  2934.000   8.28397703e+00
  2934.500   8.28721794e+00
  2935.000   8.29049088e+00
  2935.500   8.29379606e+00
  2936.000   8.29713368e+00
  2936.500   8.30050392e+00
  2937.000   8.30390698e+00
  2937.500   8.30734307e+00
  2938.000   8.31081238e+00
  2938.500   8.31431513e+00
  2939.000   8.31785151e+00
  2939.500   8.32142173e+00
  2940.000   8.32502600e+00
  2940.500   8.32866453e+00
  2941.000   8.33233754e+00
  2941.500   8.33604523e+00
  2942.000   8.33978783e+00
  2942.500   8.34356555e+00
  2943.000   8.34737861e+00
  2943.500   8.35122724e+00
  2944.000   8.35511165e+00
  2944.500   8.35903208e+00
  2945.000   8.36298875e+00
  2945.500   8.36698190e+00
  2946.000   8.37101174e+00
  2946.500   8.37507853e+00
  2947.000   8.37918249e+00
  2947.500   8.38332386e+00
  2948.000   8.38750289e+00
  2948.500   8.39171981e+00
  2949.000   8.39597487e+00
  2949.500   8.40026832e+00
  2950.000   8.40460041e+00
  2950.500   8.40897139e+00
  2951.000   8.41338152e+00
  2951.500   8.41783104e+00
  2952.000   8.42232023e+00
  2952.500   8.42684933e+00
  2953.000   8.43141862e+00
  2953.500   8.43602836e+00
  2954.000   8.44067882e+00
  2954.500   8.44537026e+00
  2955.000   8.45010297e+00
  2955.500   8.45487723e+00
  2956.000   8.45969329e+00
  2956.500   8.46455146e+00
  2957.000   8.46945202e+00
  2957.500   8.47439524e+00
  2958.000   8.47938143e+00
  2958.500   8.48441087e+00
  2959.000   8.48948385e+00
  2959.500   8.49460069e+00
  2960.000   8.49976167e+00
  2960.500   8.50496710e+00
  2961.000   8.51021729e+00
  2961.500   8.51551254e+00
  2962.000   8.52085318e+00
  2962.500   8.52623951e+00
  2963.000   8.53167186e+00
  2963.500   8.53715054e+00
  2964.000   8.54267589e+00
  2964.500   8.54824822e+00
  2965.000   8.55386788e+00
  2965.500   8.55953520e+00
  2966.000   8.56525051e+00
  2966.500   8.57101416e+00
  2967.000   8.57682649e+00
  2967.500   8.58268785e+00
  2968.000   8.58859860e+00
  2968.500   8.59455909e+00
  2969.000   8.60056967e+00
  2969.500   8.60663072e+00
  2970.000   8.61274260e+00
  2970.500   8.61890567e+00
  2971.000   8.62512032e+00
  2971.500   8.63138693e+00
  2972.000   8.63770586e+00
  2972.500   8.64407752e+00
  2973.000   8.65050229e+00
  2973.500   8.65698057e+00
  2974.000   8.66351275e+00
  2974.500   8.67009924e+00
  2975.000   8.67674044e+00
  2975.500   8.68343677e+00
  2976.000   8.69018865e+00
  2976.500   8.69699648e+00
  2977.000   8.70386070e+00
  2977.500   8.71078174e+00
  2978.000   8.71776004e+00
  2978.500   8.72479602e+00
  2979.000   8.73189013e+00
  2979.500   8.73904284e+00
  2980.000   8.74625457e+00
  2980.500   8.75352581e+00
  2981.000   8.76085700e+00
  2981.500   8.76824862e+00
  2982.000   8.77570115e+00
  2982.500   8.78321506e+00
  2983.000   8.79079084e+00
  2983.500   8.79842898e+00
  2984.000   8.80612998e+00
  2984.500   8.81389433e+00
  2985.000   8.82172255e+00
  2985.500   8.82961516e+00
  2986.000   8.83757266e+00
  2986.500   8.84559559e+00
  2987.000   8.85368448e+00
  2987.500   8.86183987e+00
  2988.000   8.87006231e+00
  2988.500   8.87835234e+00
  2989.000   8.88671053e+00
  2989.500   8.89513743e+00
  2990.000   8.90363363e+00
  2990.500   8.91219970e+00
  2991.000   8.92083623e+00
  2991.500   8.92954381e+00
  2992.000   8.93832305e+00
  2992.500   8.94717454e+00
  2993.000   8.95609892e+00
  2993.500   8.96509680e+00
  2994.000   8.97416881e+00
  2994.500   8.98331561e+00
  2995.000   8.99253783e+00
  2995.500   9.00183613e+00
  2996.000   9.01121118e+00
  2996.500   9.02066365e+00
  2997.000   9.03019424e+00
  2997.500   9.03980363e+00
  2998.000   9.04949252e+00
  2998.500   9.05926162e+00
  2999.000   9.06911167e+00
  2999.500   9.07904339e+00
