# # Created with Intravib version 0.0.9g 
# # Total reorganization energy:  2298.681041 cm^-1
     0.000   0.00000000e+00
     0.500   9.53484120e-03
     1.000   1.90907144e-02
     1.500   2.86676823e-02
     2.000   3.82658080e-02
     2.500   4.78851547e-02
     3.000   5.75257860e-02
     3.500   6.71877657e-02
     4.000   7.68711579e-02
     4.500   8.65760271e-02
     5.000   9.63024378e-02
     5.500   1.06050455e-01
     6.000   1.15820144e-01
     6.500   1.25611570e-01
     7.000   1.35424799e-01
     7.500   1.45259897e-01
     8.000   1.55116930e-01
     8.500   1.64995966e-01
     9.000   1.74897070e-01
     9.500   1.84820311e-01
    10.000   1.94765755e-01
    10.500   2.04733471e-01
    11.000   2.14723526e-01
    11.500   2.24735990e-01
    12.000   2.34770930e-01
    12.500   2.44828416e-01
    13.000   2.54908517e-01
    13.500   2.65011302e-01
    14.000   2.75136843e-01
    14.500   2.85285208e-01
    15.000   2.95456469e-01
    15.500   3.05650696e-01
    16.000   3.15867961e-01
    16.500   3.26108334e-01
    17.000   3.36371889e-01
    17.500   3.46658697e-01
    18.000   3.56968830e-01
    18.500   3.67302362e-01
    19.000   3.77659366e-01
    19.500   3.88039914e-01
    20.000   3.98444082e-01
    20.500   4.08871942e-01
    21.000   4.19323571e-01
    21.500   4.29799041e-01
    22.000   4.40298430e-01
    22.500   4.50821811e-01
    23.000   4.61369262e-01
    23.500   4.71940858e-01
    24.000   4.82536676e-01
    24.500   4.93156793e-01
    25.000   5.03801286e-01
    25.500   5.14470233e-01
    26.000   5.25163712e-01
    26.500   5.35881802e-01
    27.000   5.46624581e-01
    27.500   5.57392128e-01
    28.000   5.68184523e-01
    28.500   5.79001845e-01
    29.000   5.89844176e-01
    29.500   6.00711596e-01
    30.000   6.11604185e-01
    30.500   6.22522026e-01
    31.000   6.33465200e-01
    31.500   6.44433789e-01
    32.000   6.55427876e-01
    32.500   6.66447545e-01
    33.000   6.77492878e-01
    33.500   6.88563959e-01
    34.000   6.99660873e-01
    34.500   7.10783705e-01
    35.000   7.21932539e-01
    35.500   7.33107461e-01
    36.000   7.44308557e-01
    36.500   7.55535913e-01
    37.000   7.66789617e-01
    37.500   7.78069754e-01
    38.000   7.89376414e-01
    38.500   8.00709684e-01
    39.000   8.12069653e-01
    39.500   8.23456409e-01
    40.000   8.34870043e-01
    40.500   8.46310644e-01
    41.000   8.57778302e-01
    41.500   8.69273108e-01
    42.000   8.80795154e-01
    42.500   8.92344532e-01
    43.000   9.03921333e-01
    43.500   9.15525650e-01
    44.000   9.27157577e-01
    44.500   9.38817207e-01
    45.000   9.50504635e-01
    45.500   9.62219954e-01
    46.000   9.73963261e-01
    46.500   9.85734650e-01
    47.000   9.97534219e-01
    47.500   1.00936206e+00
    48.000   1.02121828e+00
    48.500   1.03310297e+00
    49.000   1.04501623e+00
    49.500   1.05695815e+00
    50.000   1.06892884e+00
    50.500   1.08092840e+00
    51.000   1.09295693e+00
    51.500   1.10501452e+00
    52.000   1.11710128e+00
    52.500   1.12921732e+00
    53.000   1.14136273e+00
    53.500   1.15353761e+00
    54.000   1.16574208e+00
    54.500   1.17797623e+00
    55.000   1.19024018e+00
    55.500   1.20253402e+00
    56.000   1.21485786e+00
    56.500   1.22721181e+00
    57.000   1.23959598e+00
    57.500   1.25201047e+00
    58.000   1.26445539e+00
    58.500   1.27693085e+00
    59.000   1.28943697e+00
    59.500   1.30197384e+00
    60.000   1.31454159e+00
    60.500   1.32714033e+00
    61.000   1.33977016e+00
    61.500   1.35243120e+00
    62.000   1.36512356e+00
    62.500   1.37784736e+00
    63.000   1.39060271e+00
    63.500   1.40338974e+00
    64.000   1.41620854e+00
    64.500   1.42905925e+00
    65.000   1.44194198e+00
    65.500   1.45485685e+00
    66.000   1.46780397e+00
    66.500   1.48078347e+00
    67.000   1.49379547e+00
    67.500   1.50684009e+00
    68.000   1.51991745e+00
    68.500   1.53302768e+00
    69.000   1.54617089e+00
    69.500   1.55934722e+00
    70.000   1.57255678e+00
    70.500   1.58579971e+00
    71.000   1.59907613e+00
    71.500   1.61238617e+00
    72.000   1.62572995e+00
    72.500   1.63910762e+00
    73.000   1.65251928e+00
    73.500   1.66596509e+00
    74.000   1.67944517e+00
    74.500   1.69295965e+00
    75.000   1.70650866e+00
    75.500   1.72009234e+00
    76.000   1.73371084e+00
    76.500   1.74736427e+00
    77.000   1.76105278e+00
    77.500   1.77477651e+00
    78.000   1.78853559e+00
    78.500   1.80233017e+00
    79.000   1.81616039e+00
    79.500   1.83002638e+00
    80.000   1.84392830e+00
    80.500   1.85786629e+00
    81.000   1.87184048e+00
    81.500   1.88585103e+00
    82.000   1.89989808e+00
    82.500   1.91398179e+00
    83.000   1.92810229e+00
    83.500   1.94225974e+00
    84.000   1.95645430e+00
    84.500   1.97068611e+00
    85.000   1.98495532e+00
    85.500   1.99926209e+00
    86.000   2.01360658e+00
    86.500   2.02798894e+00
    87.000   2.04240934e+00
    87.500   2.05686792e+00
    88.000   2.07136485e+00
    88.500   2.08590029e+00
    89.000   2.10047440e+00
    89.500   2.11508734e+00
    90.000   2.12973929e+00
    90.500   2.14443041e+00
    91.000   2.15916086e+00
    91.500   2.17393081e+00
    92.000   2.18874043e+00
    92.500   2.20358989e+00
    93.000   2.21847937e+00
    93.500   2.23340904e+00
    94.000   2.24837908e+00
    94.500   2.26338965e+00
    95.000   2.27844094e+00
    95.500   2.29353313e+00
    96.000   2.30866639e+00
    96.500   2.32384092e+00
    97.000   2.33905688e+00
    97.500   2.35431448e+00
    98.000   2.36961388e+00
    98.500   2.38495529e+00
    99.000   2.40033888e+00
    99.500   2.41576485e+00
   100.000   2.43123339e+00
   100.500   2.44674470e+00
   101.000   2.46229897e+00
   101.500   2.47789639e+00
   102.000   2.49353717e+00
   102.500   2.50922150e+00
   103.000   2.52494958e+00
   103.500   2.54072162e+00
   104.000   2.55653782e+00
   104.500   2.57239839e+00
   105.000   2.58830353e+00
   105.500   2.60425346e+00
   106.000   2.62024838e+00
   106.500   2.63628851e+00
   107.000   2.65237406e+00
   107.500   2.66850524e+00
   108.000   2.68468228e+00
   108.500   2.70090540e+00
   109.000   2.71717481e+00
   109.500   2.73349074e+00
   110.000   2.74985341e+00
   110.500   2.76626306e+00
   111.000   2.78271990e+00
   111.500   2.79922417e+00
   112.000   2.81577611e+00
   112.500   2.83237594e+00
   113.000   2.84902391e+00
   113.500   2.86572025e+00
   114.000   2.88246521e+00
   114.500   2.89925902e+00
   115.000   2.91610194e+00
   115.500   2.93299420e+00
   116.000   2.94993607e+00
   116.500   2.96692779e+00
   117.000   2.98396961e+00
   117.500   3.00106181e+00
   118.000   3.01820462e+00
   118.500   3.03539833e+00
   119.000   3.05264319e+00
   119.500   3.06993947e+00
   120.000   3.08728744e+00
   120.500   3.10468739e+00
   121.000   3.12213957e+00
   121.500   3.13964429e+00
   122.000   3.15720181e+00
   122.500   3.17481243e+00
   123.000   3.19247644e+00
   123.500   3.21019414e+00
   124.000   3.22796582e+00
   124.500   3.24579178e+00
   125.000   3.26367233e+00
   125.500   3.28160779e+00
   126.000   3.29959847e+00
   126.500   3.31764468e+00
   127.000   3.33574675e+00
   127.500   3.35390500e+00
   128.000   3.37211979e+00
   128.500   3.39039143e+00
   129.000   3.40872027e+00
   129.500   3.42710667e+00
   130.000   3.44555097e+00
   130.500   3.46405353e+00
   131.000   3.48261472e+00
   131.500   3.50123491e+00
   132.000   3.51991447e+00
   132.500   3.53865378e+00
   133.000   3.55745324e+00
   133.500   3.57631323e+00
   134.000   3.59523415e+00
   134.500   3.61421641e+00
   135.000   3.63326041e+00
   135.500   3.65236659e+00
   136.000   3.67153536e+00
   136.500   3.69076714e+00
   137.000   3.71006239e+00
   137.500   3.72942154e+00
   138.000   3.74884504e+00
   138.500   3.76833335e+00
   139.000   3.78788694e+00
   139.500   3.80750627e+00
   140.000   3.82719183e+00
   140.500   3.84694410e+00
   141.000   3.86676357e+00
   141.500   3.88665075e+00
   142.000   3.90660613e+00
   142.500   3.92663025e+00
   143.000   3.94672361e+00
   143.500   3.96688676e+00
   144.000   3.98712022e+00
   144.500   4.00742455e+00
   145.000   4.02780031e+00
   145.500   4.04824804e+00
   146.000   4.06876834e+00
   146.500   4.08936177e+00
   147.000   4.11002892e+00
   147.500   4.13077040e+00
   148.000   4.15158681e+00
   148.500   4.17247877e+00
   149.000   4.19344689e+00
   149.500   4.21449182e+00
   150.000   4.23561420e+00
   150.500   4.25681468e+00
   151.000   4.27809393e+00
   151.500   4.29945263e+00
   152.000   4.32089145e+00
   152.500   4.34241109e+00
   153.000   4.36401225e+00
   153.500   4.38569567e+00
   154.000   4.40746205e+00
   154.500   4.42931214e+00
   155.000   4.45124669e+00
   155.500   4.47326646e+00
   156.000   4.49537223e+00
   156.500   4.51756478e+00
   157.000   4.53984491e+00
   157.500   4.56221343e+00
   158.000   4.58467117e+00
   158.500   4.60721895e+00
   159.000   4.62985762e+00
   159.500   4.65258805e+00
   160.000   4.67541112e+00
   160.500   4.69832770e+00
   161.000   4.72133871e+00
   161.500   4.74444505e+00
   162.000   4.76764766e+00
   162.500   4.79094747e+00
   163.000   4.81434545e+00
   163.500   4.83784256e+00
   164.000   4.86143979e+00
   164.500   4.88513813e+00
   165.000   4.90893861e+00
   165.500   4.93284224e+00
   166.000   4.95685006e+00
   166.500   4.98096314e+00
   167.000   5.00518253e+00
   167.500   5.02950933e+00
   168.000   5.05394462e+00
   168.500   5.07848953e+00
   169.000   5.10314516e+00
   169.500   5.12791266e+00
   170.000   5.15279317e+00
   170.500   5.17778786e+00
   171.000   5.20289790e+00
   171.500   5.22812447e+00
   172.000   5.25346876e+00
   172.500   5.27893199e+00
   173.000   5.30451537e+00
   173.500   5.33022012e+00
   174.000   5.35604748e+00
   174.500   5.38199867e+00
   175.000   5.40807496e+00
   175.500   5.43427759e+00
   176.000   5.46060781e+00
   176.500   5.48706688e+00
   177.000   5.51365606e+00
   177.500   5.54037661e+00
   178.000   5.56722978e+00
   178.500   5.59421682e+00
   179.000   5.62133899e+00
   179.500   5.64859751e+00
   180.000   5.67599363e+00
   180.500   5.70352854e+00
   181.000   5.73120346e+00
   181.500   5.75901956e+00
   182.000   5.78697800e+00
   182.500   5.81507993e+00
   183.000   5.84332645e+00
   183.500   5.87171863e+00
   184.000   5.90025752e+00
   184.500   5.92894413e+00
   185.000   5.95777941e+00
   185.500   5.98676427e+00
   186.000   6.01589957e+00
   186.500   6.04518611e+00
   187.000   6.07462463e+00
   187.500   6.10421579e+00
   188.000   6.13396018e+00
   188.500   6.16385831e+00
   189.000   6.19391061e+00
   189.500   6.22411741e+00
   190.000   6.25447892e+00
   190.500   6.28499527e+00
   191.000   6.31566645e+00
   191.500   6.34649234e+00
   192.000   6.37747269e+00
   192.500   6.40860709e+00
   193.000   6.43989500e+00
   193.500   6.47133571e+00
   194.000   6.50292836e+00
   194.500   6.53467190e+00
   195.000   6.56656509e+00
   195.500   6.59860652e+00
   196.000   6.63079456e+00
   196.500   6.66312737e+00
   197.000   6.69560290e+00
   197.500   6.72821886e+00
   198.000   6.76097273e+00
   198.500   6.79386176e+00
   199.000   6.82688292e+00
   199.500   6.86003294e+00
   200.000   6.89330829e+00
   200.500   6.92670516e+00
   201.000   6.96021945e+00
   201.500   6.99384682e+00
   202.000   7.02758263e+00
   202.500   7.06142193e+00
   203.000   7.09535954e+00
   203.500   7.12938996e+00
   204.000   7.16350741e+00
   204.500   7.19770586e+00
   205.000   7.23197899e+00
   205.500   7.26632023e+00
   206.000   7.30072275e+00
   206.500   7.33517947e+00
   207.000   7.36968311e+00
   207.500   7.40422616e+00
   208.000   7.43880091e+00
   208.500   7.47339950e+00
   209.000   7.50801389e+00
   209.500   7.54263594e+00
   210.000   7.57725739e+00
   210.500   7.61186992e+00
   211.000   7.64646515e+00
   211.500   7.68103471e+00
   212.000   7.71557023e+00
   212.500   7.75006342e+00
   213.000   7.78450607e+00
   213.500   7.81889011e+00
   214.000   7.85320763e+00
   214.500   7.88745093e+00
   215.000   7.92161256e+00
   215.500   7.95568534e+00
   216.000   7.98966243e+00
   216.500   8.02353734e+00
   217.000   8.05730396e+00
   217.500   8.09095663e+00
   218.000   8.12449014e+00
   218.500   8.15789977e+00
   219.000   8.19118133e+00
   219.500   8.22433114e+00
   220.000   8.25734612e+00
   220.500   8.29022377e+00
   221.000   8.32296216e+00
   221.500   8.35556000e+00
   222.000   8.38801661e+00
   222.500   8.42033192e+00
   223.000   8.45250651e+00
   223.500   8.48454155e+00
   224.000   8.51643883e+00
   224.500   8.54820077e+00
   225.000   8.57983033e+00
   225.500   8.61133109e+00
   226.000   8.64270714e+00
   226.500   8.67396311e+00
   227.000   8.70510414e+00
   227.500   8.73613583e+00
   228.000   8.76706423e+00
   228.500   8.79789580e+00
   229.000   8.82863737e+00
   229.500   8.85929611e+00
   230.000   8.88987950e+00
   230.500   8.92039531e+00
   231.000   8.95085152e+00
   231.500   8.98125631e+00
   232.000   9.01161806e+00
   232.500   9.04194523e+00
   233.000   9.07224642e+00
   233.500   9.10253028e+00
   234.000   9.13280549e+00
   234.500   9.16308073e+00
   235.000   9.19336467e+00
   235.500   9.22366592e+00
   236.000   9.25399303e+00
   236.500   9.28435442e+00
   237.000   9.31475844e+00
   237.500   9.34521325e+00
   238.000   9.37572690e+00
   238.500   9.40630725e+00
   239.000   9.43696197e+00
   239.500   9.46769855e+00
   240.000   9.49852427e+00
   240.500   9.52944619e+00
   241.000   9.56047116e+00
   241.500   9.59160580e+00
   242.000   9.62285650e+00
   242.500   9.65422943e+00
   243.000   9.68573051e+00
   243.500   9.71736544e+00
   244.000   9.74913968e+00
   244.500   9.78105847e+00
   245.000   9.81312681e+00
   245.500   9.84534949e+00
   246.000   9.87773108e+00
   246.500   9.91027591e+00
   247.000   9.94298812e+00
   247.500   9.97587166e+00
   248.000   1.00089303e+01
   248.500   1.00421674e+01
   249.000   1.00755866e+01
   249.500   1.01091909e+01
   250.000   1.01429833e+01
   250.500   1.01769668e+01
   251.000   1.02111439e+01
   251.500   1.02455172e+01
   252.000   1.02800891e+01
   252.500   1.03148618e+01
   253.000   1.03498376e+01
   253.500   1.03850183e+01
   254.000   1.04204059e+01
   254.500   1.04560021e+01
   255.000   1.04918086e+01
   255.500   1.05278270e+01
   256.000   1.05640588e+01
   256.500   1.06005053e+01
   257.000   1.06371679e+01
   257.500   1.06740478e+01
   258.000   1.07111462e+01
   258.500   1.07484642e+01
   259.000   1.07860028e+01
   259.500   1.08237630e+01
   260.000   1.08617459e+01
   260.500   1.08999521e+01
   261.000   1.09383827e+01
   261.500   1.09770384e+01
   262.000   1.10159200e+01
   262.500   1.10550283e+01
   263.000   1.10943639e+01
   263.500   1.11339276e+01
   264.000   1.11737200e+01
   264.500   1.12137418e+01
   265.000   1.12539935e+01
   265.500   1.12944760e+01
   266.000   1.13351896e+01
   266.500   1.13761351e+01
   267.000   1.14173130e+01
   267.500   1.14587240e+01
   268.000   1.15003685e+01
   268.500   1.15422471e+01
   269.000   1.15843606e+01
   269.500   1.16267093e+01
   270.000   1.16692940e+01
   270.500   1.17121151e+01
   271.000   1.17551733e+01
   271.500   1.17984692e+01
   272.000   1.18420034e+01
   272.500   1.18857765e+01
   273.000   1.19297891e+01
   273.500   1.19740419e+01
   274.000   1.20185354e+01
   274.500   1.20632705e+01
   275.000   1.21082476e+01
   275.500   1.21534675e+01
   276.000   1.21989310e+01
   276.500   1.22446387e+01
   277.000   1.22905913e+01
   277.500   1.23367896e+01
   278.000   1.23832343e+01
   278.500   1.24299263e+01
   279.000   1.24768663e+01
   279.500   1.25240551e+01
   280.000   1.25714936e+01
   280.500   1.26191826e+01
   281.000   1.26671229e+01
   281.500   1.27153155e+01
   282.000   1.27637613e+01
   282.500   1.28124611e+01
   283.000   1.28614160e+01
   283.500   1.29106269e+01
   284.000   1.29600947e+01
   284.500   1.30098205e+01
   285.000   1.30598053e+01
   285.500   1.31100501e+01
   286.000   1.31605560e+01
   286.500   1.32113242e+01
   287.000   1.32623556e+01
   287.500   1.33136515e+01
   288.000   1.33652129e+01
   288.500   1.34170411e+01
   289.000   1.34691372e+01
   289.500   1.35215024e+01
   290.000   1.35741381e+01
   290.500   1.36270454e+01
   291.000   1.36802256e+01
   291.500   1.37336800e+01
   292.000   1.37874100e+01
   292.500   1.38414169e+01
   293.000   1.38957020e+01
   293.500   1.39502668e+01
   294.000   1.40051126e+01
   294.500   1.40602410e+01
   295.000   1.41156533e+01
   295.500   1.41713510e+01
   296.000   1.42273357e+01
   296.500   1.42836089e+01
   297.000   1.43401721e+01
   297.500   1.43970268e+01
   298.000   1.44541748e+01
   298.500   1.45116176e+01
   299.000   1.45693568e+01
   299.500   1.46273942e+01
   300.000   1.46857314e+01
   300.500   1.47443701e+01
   301.000   1.48033120e+01
   301.500   1.48625590e+01
   302.000   1.49221128e+01
   302.500   1.49819753e+01
   303.000   1.50421482e+01
   303.500   1.51026334e+01
   304.000   1.51634329e+01
   304.500   1.52245484e+01
   305.000   1.52859821e+01
   305.500   1.53477357e+01
   306.000   1.54098114e+01
   306.500   1.54722111e+01
   307.000   1.55349368e+01
   307.500   1.55979906e+01
   308.000   1.56613747e+01
   308.500   1.57250911e+01
   309.000   1.57891419e+01
   309.500   1.58535294e+01
   310.000   1.59182557e+01
   310.500   1.59833231e+01
   311.000   1.60487337e+01
   311.500   1.61144900e+01
   312.000   1.61805941e+01
   312.500   1.62470484e+01
   313.000   1.63138554e+01
   313.500   1.63810173e+01
   314.000   1.64485366e+01
   314.500   1.65164157e+01
   315.000   1.65846571e+01
   315.500   1.66532633e+01
   316.000   1.67222369e+01
   316.500   1.67915804e+01
   317.000   1.68612965e+01
   317.500   1.69313876e+01
   318.000   1.70018566e+01
   318.500   1.70727060e+01
   319.000   1.71439386e+01
   319.500   1.72155572e+01
   320.000   1.72875645e+01
   320.500   1.73599633e+01
   321.000   1.74327566e+01
   321.500   1.75059471e+01
   322.000   1.75795378e+01
   322.500   1.76535316e+01
   323.000   1.77279315e+01
   323.500   1.78027406e+01
   324.000   1.78779618e+01
   324.500   1.79535983e+01
   325.000   1.80296532e+01
   325.500   1.81061296e+01
   326.000   1.81830307e+01
   326.500   1.82603598e+01
   327.000   1.83381201e+01
   327.500   1.84163150e+01
   328.000   1.84949477e+01
   328.500   1.85740216e+01
   329.000   1.86535402e+01
   329.500   1.87335069e+01
   330.000   1.88139252e+01
   330.500   1.88947987e+01
   331.000   1.89761309e+01
   331.500   1.90579255e+01
   332.000   1.91401860e+01
   332.500   1.92229163e+01
   333.000   1.93061200e+01
   333.500   1.93898009e+01
   334.000   1.94739629e+01
   334.500   1.95586098e+01
   335.000   1.96437456e+01
   335.500   1.97293742e+01
   336.000   1.98154997e+01
   336.500   1.99021260e+01
   337.000   1.99892573e+01
   337.500   2.00768978e+01
   338.000   2.01650515e+01
   338.500   2.02537229e+01
   339.000   2.03429162e+01
   339.500   2.04326356e+01
   340.000   2.05228857e+01
   340.500   2.06136709e+01
   341.000   2.07049956e+01
   341.500   2.07968645e+01
   342.000   2.08892821e+01
   342.500   2.09822530e+01
   343.000   2.10757821e+01
   343.500   2.11698740e+01
   344.000   2.12645336e+01
   344.500   2.13597658e+01
   345.000   2.14555755e+01
   345.500   2.15519677e+01
   346.000   2.16489475e+01
   346.500   2.17465200e+01
   347.000   2.18446903e+01
   347.500   2.19434638e+01
   348.000   2.20428456e+01
   348.500   2.21428412e+01
   349.000   2.22434560e+01
   349.500   2.23446955e+01
   350.000   2.24465653e+01
   350.500   2.25490709e+01
   351.000   2.26522181e+01
   351.500   2.27560126e+01
   352.000   2.28604604e+01
   352.500   2.29655672e+01
   353.000   2.30713390e+01
   353.500   2.31777820e+01
   354.000   2.32849021e+01
   354.500   2.33927057e+01
   355.000   2.35011990e+01
   355.500   2.36103884e+01
   356.000   2.37202802e+01
   356.500   2.38308810e+01
   357.000   2.39421974e+01
   357.500   2.40542360e+01
   358.000   2.41670036e+01
   358.500   2.42805070e+01
   359.000   2.43947532e+01
   359.500   2.45097492e+01
   360.000   2.46255020e+01
   360.500   2.47420189e+01
   361.000   2.48593070e+01
   361.500   2.49773739e+01
   362.000   2.50962269e+01
   362.500   2.52158736e+01
   363.000   2.53363217e+01
   363.500   2.54575789e+01
   364.000   2.55796530e+01
   364.500   2.57025521e+01
   365.000   2.58262840e+01
   365.500   2.59508571e+01
   366.000   2.60762796e+01
   366.500   2.62025598e+01
   367.000   2.63297062e+01
   367.500   2.64577274e+01
   368.000   2.65866321e+01
   368.500   2.67164291e+01
   369.000   2.68471274e+01
   369.500   2.69787359e+01
   370.000   2.71112638e+01
   370.500   2.72447205e+01
   371.000   2.73791153e+01
   371.500   2.75144577e+01
   372.000   2.76507575e+01
   372.500   2.77880244e+01
   373.000   2.79262683e+01
   373.500   2.80654994e+01
   374.000   2.82057276e+01
   374.500   2.83469635e+01
   375.000   2.84892175e+01
   375.500   2.86325001e+01
   376.000   2.87768222e+01
   376.500   2.89221945e+01
   377.000   2.90686283e+01
   377.500   2.92161346e+01
   378.000   2.93647249e+01
   378.500   2.95144106e+01
   379.000   2.96652035e+01
   379.500   2.98171153e+01
   380.000   2.99701580e+01
   380.500   3.01243439e+01
   381.000   3.02796852e+01
   381.500   3.04361945e+01
   382.000   3.05938844e+01
   382.500   3.07527679e+01
   383.000   3.09128579e+01
   383.500   3.10741677e+01
   384.000   3.12367107e+01
   384.500   3.14005006e+01
   385.000   3.15655511e+01
   385.500   3.17318762e+01
   386.000   3.18994902e+01
   386.500   3.20684075e+01
   387.000   3.22386426e+01
   387.500   3.24102104e+01
   388.000   3.25831260e+01
   388.500   3.27574046e+01
   389.000   3.29330617e+01
   389.500   3.31101130e+01
   390.000   3.32885745e+01
   390.500   3.34684623e+01
   391.000   3.36497929e+01
   391.500   3.38325829e+01
   392.000   3.40168493e+01
   392.500   3.42026091e+01
   393.000   3.43898799e+01
   393.500   3.45786792e+01
   394.000   3.47690251e+01
   394.500   3.49609357e+01
   395.000   3.51544295e+01
   395.500   3.53495253e+01
   396.000   3.55462421e+01
   396.500   3.57445992e+01
   397.000   3.59446164e+01
   397.500   3.61463134e+01
   398.000   3.63497106e+01
   398.500   3.65548285e+01
   399.000   3.67616880e+01
   399.500   3.69703101e+01
   400.000   3.71807165e+01
   400.500   3.73929289e+01
   401.000   3.76069695e+01
   401.500   3.78228609e+01
   402.000   3.80406260e+01
   402.500   3.82602878e+01
   403.000   3.84818701e+01
   403.500   3.87053967e+01
   404.000   3.89308921e+01
   404.500   3.91583809e+01
   405.000   3.93878882e+01
   405.500   3.96194395e+01
   406.000   3.98530608e+01
   406.500   4.00887783e+01
   407.000   4.03266187e+01
   407.500   4.05666093e+01
   408.000   4.08087775e+01
   408.500   4.10531515e+01
   409.000   4.12997596e+01
   409.500   4.15486308e+01
   410.000   4.17997946e+01
   410.500   4.20532806e+01
   411.000   4.23091194e+01
   411.500   4.25673416e+01
   412.000   4.28279786e+01
   412.500   4.30910623e+01
   413.000   4.33566249e+01
   413.500   4.36246992e+01
   414.000   4.38953188e+01
   414.500   4.41685174e+01
   415.000   4.44443295e+01
   415.500   4.47227902e+01
   416.000   4.50039349e+01
   416.500   4.52877999e+01
   417.000   4.55744219e+01
   417.500   4.58638381e+01
   418.000   4.61560865e+01
   418.500   4.64512055e+01
   419.000   4.67492344e+01
   419.500   4.70502129e+01
   420.000   4.73541813e+01
   420.500   4.76611807e+01
   421.000   4.79712528e+01
   421.500   4.82844399e+01
   422.000   4.86007849e+01
   422.500   4.89203317e+01
   423.000   4.92431245e+01
   423.500   4.95692084e+01
   424.000   4.98986292e+01
   424.500   5.02314334e+01
   425.000   5.05676681e+01
   425.500   5.09073812e+01
   426.000   5.12506213e+01
   426.500   5.15974380e+01
   427.000   5.19478812e+01
   427.500   5.23020018e+01
   428.000   5.26598515e+01
   428.500   5.30214826e+01
   429.000   5.33869483e+01
   429.500   5.37563026e+01
   430.000   5.41296001e+01
   430.500   5.45068962e+01
   431.000   5.48882473e+01
   431.500   5.52737104e+01
   432.000   5.56633432e+01
   432.500   5.60572045e+01
   433.000   5.64553535e+01
   433.500   5.68578504e+01
   434.000   5.72647563e+01
   434.500   5.76761327e+01
   435.000   5.80920422e+01
   435.500   5.85125482e+01
   436.000   5.89377145e+01
   436.500   5.93676061e+01
   437.000   5.98022884e+01
   437.500   6.02418277e+01
   438.000   6.06862912e+01
   438.500   6.11357464e+01
   439.000   6.15902620e+01
   439.500   6.20499069e+01
   440.000   6.25147512e+01
   440.500   6.29848653e+01
   441.000   6.34603204e+01
   441.500   6.39411883e+01
   442.000   6.44275415e+01
   442.500   6.49194531e+01
   443.000   6.54169966e+01
   443.500   6.59202464e+01
   444.000   6.64292772e+01
   444.500   6.69441644e+01
   445.000   6.74649839e+01
   445.500   6.79918119e+01
   446.000   6.85247254e+01
   446.500   6.90638016e+01
   447.000   6.96091185e+01
   447.500   7.01607542e+01
   448.000   7.07187875e+01
   448.500   7.12832974e+01
   449.000   7.18543636e+01
   449.500   7.24320660e+01
   450.000   7.30164851e+01
   450.500   7.36077019e+01
   451.000   7.42057976e+01
   451.500   7.48108541e+01
   452.000   7.54229538e+01
   452.500   7.60421795e+01
   453.000   7.66686149e+01
   453.500   7.73023440e+01
   454.000   7.79434517e+01
   454.500   7.85920235e+01
   455.000   7.92481461e+01
   455.500   7.99119069e+01
   456.000   8.05833942e+01
   456.500   8.12626978e+01
   457.000   8.19499087e+01
   457.500   8.26451193e+01
   458.000   8.33484236e+01
   458.500   8.40599173e+01
   459.000   8.47796982e+01
   459.500   8.55078663e+01
   460.000   8.62445238e+01
   460.500   8.69897755e+01
   461.000   8.77437292e+01
   461.500   8.85064956e+01
   462.000   8.92781889e+01
   462.500   9.00589267e+01
   463.000   9.08488309e+01
   463.500   9.16480271e+01
   464.000   9.24566457e+01
   464.500   9.32748219e+01
   465.000   9.41026958e+01
   465.500   9.49404132e+01
   466.000   9.57881252e+01
   466.500   9.66459893e+01
   467.000   9.75141693e+01
   467.500   9.83928354e+01
   468.000   9.92821648e+01
   468.500   1.00182342e+02
   469.000   1.01093559e+02
   469.500   1.02016015e+02
   470.000   1.02949918e+02
   470.500   1.03895484e+02
   471.000   1.04852936e+02
   471.500   1.05822508e+02
   472.000   1.06804440e+02
   472.500   1.07798983e+02
   473.000   1.08806397e+02
   473.500   1.09826949e+02
   474.000   1.10860917e+02
   474.500   1.11908587e+02
   475.000   1.12970256e+02
   475.500   1.14046229e+02
   476.000   1.15136820e+02
   476.500   1.16242353e+02
   477.000   1.17363160e+02
   477.500   1.18499583e+02
   478.000   1.19651974e+02
   478.500   1.20820692e+02
   479.000   1.22006107e+02
   479.500   1.23208595e+02
   480.000   1.24428544e+02
   480.500   1.25666347e+02
   481.000   1.26922408e+02
   481.500   1.28197138e+02
   482.000   1.29490957e+02
   482.500   1.30804294e+02
   483.000   1.32137582e+02
   483.500   1.33491267e+02
   484.000   1.34865799e+02
   484.500   1.36261636e+02
   485.000   1.37679245e+02
   485.500   1.39119100e+02
   486.000   1.40581681e+02
   486.500   1.42067477e+02
   487.000   1.43576982e+02
   487.500   1.45110698e+02
   488.000   1.46669136e+02
   488.500   1.48252809e+02
   489.000   1.49862242e+02
   489.500   1.51497963e+02
   490.000   1.53160509e+02
   490.500   1.54850421e+02
   491.000   1.56568248e+02
   491.500   1.58314546e+02
   492.000   1.60089876e+02
   492.500   1.61894805e+02
   493.000   1.63729906e+02
   493.500   1.65595759e+02
   494.000   1.67492947e+02
   494.500   1.69422062e+02
   495.000   1.71383699e+02
   495.500   1.73378457e+02
   496.000   1.75406943e+02
   496.500   1.77469765e+02
   497.000   1.79567537e+02
   497.500   1.81700877e+02
   498.000   1.83870405e+02
   498.500   1.86076745e+02
   499.000   1.88320523e+02
   499.500   1.90602367e+02
   500.000   1.92922905e+02
   500.500   1.95282768e+02
   501.000   1.97682585e+02
   501.500   2.00122984e+02
   502.000   2.02604592e+02
   502.500   2.05128035e+02
   503.000   2.07693931e+02
   503.500   2.10302897e+02
   504.000   2.12955543e+02
   504.500   2.15652471e+02
   505.000   2.18394275e+02
   505.500   2.21181540e+02
   506.000   2.24014836e+02
   506.500   2.26894725e+02
   507.000   2.29821750e+02
   507.500   2.32796437e+02
   508.000   2.35819297e+02
   508.500   2.38890815e+02
   509.000   2.42011457e+02
   509.500   2.45181660e+02
   510.000   2.48401834e+02
   510.500   2.51672359e+02
   511.000   2.54993581e+02
   511.500   2.58365807e+02
   512.000   2.61789308e+02
   512.500   2.65264309e+02
   513.000   2.68790990e+02
   513.500   2.72369482e+02
   514.000   2.75999860e+02
   514.500   2.79682143e+02
   515.000   2.83416290e+02
   515.500   2.87202193e+02
   516.000   2.91039675e+02
   516.500   2.94928486e+02
   517.000   2.98868296e+02
   517.500   3.02858695e+02
   518.000   3.06899183e+02
   518.500   3.10989172e+02
   519.000   3.15127976e+02
   519.500   3.19314806e+02
   520.000   3.23548771e+02
   520.500   3.27828868e+02
   521.000   3.32153981e+02
   521.500   3.36522875e+02
   522.000   3.40934190e+02
   522.500   3.45386443e+02
   523.000   3.49878016e+02
   523.500   3.54407161e+02
   524.000   3.58971989e+02
   524.500   3.63570473e+02
   525.000   3.68200443e+02
   525.500   3.72859584e+02
   526.000   3.77545437e+02
   526.500   3.82255394e+02
   527.000   3.86986704e+02
   527.500   3.91736466e+02
   528.000   3.96501638e+02
   528.500   4.01279033e+02
   529.000   4.06065327e+02
   529.500   4.10857059e+02
   530.000   4.15650641e+02
   530.500   4.20442356e+02
   531.000   4.25228374e+02
   531.500   4.30004754e+02
   532.000   4.34767456e+02
   532.500   4.39512349e+02
   533.000   4.44235226e+02
   533.500   4.48931813e+02
   534.000   4.53597782e+02
   534.500   4.58228770e+02
   535.000   4.62820388e+02
   535.500   4.67368245e+02
   536.000   4.71867955e+02
   536.500   4.76315165e+02
   537.000   4.80705565e+02
   537.500   4.85034912e+02
   538.000   4.89299044e+02
   538.500   4.93493905e+02
   539.000   4.97615558e+02
   539.500   5.01660208e+02
   540.000   5.05624216e+02
   540.500   5.09504124e+02
   541.000   5.13296661e+02
   541.500   5.16998771e+02
   542.000   5.20607618e+02
   542.500   5.24120605e+02
   543.000   5.27535384e+02
   543.500   5.30849868e+02
   544.000   5.34062238e+02
   544.500   5.37170948e+02
   545.000   5.40174734e+02
   545.500   5.43072614e+02
   546.000   5.45863889e+02
   546.500   5.48548139e+02
   547.000   5.51125224e+02
   547.500   5.53595272e+02
   548.000   5.55958677e+02
   548.500   5.58216081e+02
   549.000   5.60368369e+02
   549.500   5.62416652e+02
   550.000   5.64362250e+02
   550.500   5.66206673e+02
   551.000   5.67951609e+02
   551.500   5.69598896e+02
   552.000   5.71150504e+02
   552.500   5.72608515e+02
   553.000   5.73975096e+02
   553.500   5.75252480e+02
   554.000   5.76442940e+02
   554.500   5.77548767e+02
   555.000   5.78572246e+02
   555.500   5.79515636e+02
   556.000   5.80381145e+02
   556.500   5.81170911e+02
   557.000   5.81886980e+02
   557.500   5.82531291e+02
   558.000   5.83105653e+02
   558.500   5.83611733e+02
   559.000   5.84051043e+02
   559.500   5.84424920e+02
   560.000   5.84734524e+02
   560.500   5.84980824e+02
   561.000   5.85164591e+02
   561.500   5.85286395e+02
   562.000   5.85346601e+02
   562.500   5.85345367e+02
   563.000   5.85282647e+02
   563.500   5.85158195e+02
   564.000   5.84971566e+02
   564.500   5.84722127e+02
   565.000   5.84409066e+02
   565.500   5.84031400e+02
   566.000   5.83587989e+02
   566.500   5.83077552e+02
   567.000   5.82498681e+02
   567.500   5.81849856e+02
   568.000   5.81129467e+02
   568.500   5.80335830e+02
   569.000   5.79467210e+02
   569.500   5.78521838e+02
   570.000   5.77497938e+02
   570.500   5.76393739e+02
   571.000   5.75207508e+02
   571.500   5.73937563e+02
   572.000   5.72582295e+02
   572.500   5.71140195e+02
   573.000   5.69609864e+02
   573.500   5.67990041e+02
   574.000   5.66279615e+02
   574.500   5.64477644e+02
   575.000   5.62583369e+02
   575.500   5.60596228e+02
   576.000   5.58515868e+02
   576.500   5.56342155e+02
   577.000   5.54075182e+02
   577.500   5.51715277e+02
   578.000   5.49263004e+02
   578.500   5.46719168e+02
   579.000   5.44084814e+02
   579.500   5.41361226e+02
   580.000   5.38549927e+02
   580.500   5.35652665e+02
   581.000   5.32671418e+02
   581.500   5.29608376e+02
   582.000   5.26465934e+02
   582.500   5.23246683e+02
   583.000   5.19953397e+02
   583.500   5.16589016e+02
   584.000   5.13156637e+02
   584.500   5.09659495e+02
   585.000   5.06100949e+02
   585.500   5.02484468e+02
   586.000   4.98813612e+02
   586.500   4.95092016e+02
   587.000   4.91323377e+02
   587.500   4.87511436e+02
   588.000   4.83659962e+02
   588.500   4.79772740e+02
   589.000   4.75853551e+02
   589.500   4.71906164e+02
   590.000   4.67934320e+02
   590.500   4.63941720e+02
   591.000   4.59932013e+02
   591.500   4.55908789e+02
   592.000   4.51875561e+02
   592.500   4.47835765e+02
   593.000   4.43792749e+02
   593.500   4.39749762e+02
   594.000   4.35709953e+02
   594.500   4.31676365e+02
   595.000   4.27651928e+02
   595.500   4.23639457e+02
   596.000   4.19641649e+02
   596.500   4.15661081e+02
   597.000   4.11700207e+02
   597.500   4.07761361e+02
   598.000   4.03846754e+02
   598.500   3.99958473e+02
   599.000   3.96098484e+02
   599.500   3.92268636e+02
   600.000   3.88470656e+02
   600.500   3.84706158e+02
   601.000   3.80976640e+02
   601.500   3.77283491e+02
   602.000   3.73627990e+02
   602.500   3.70011315e+02
   603.000   3.66434538e+02
   603.500   3.62898638e+02
   604.000   3.59404496e+02
   604.500   3.55952904e+02
   605.000   3.52544568e+02
   605.500   3.49180109e+02
   606.000   3.45860070e+02
   606.500   3.42584920e+02
   607.000   3.39355053e+02
   607.500   3.36170798e+02
   608.000   3.33032417e+02
   608.500   3.29940113e+02
   609.000   3.26894030e+02
   609.500   3.23894261e+02
   610.000   3.20940844e+02
   610.500   3.18033773e+02
   611.000   3.15172995e+02
   611.500   3.12358419e+02
   612.000   3.09589911e+02
   612.500   3.06867305e+02
   613.000   3.04190399e+02
   613.500   3.01558963e+02
   614.000   2.98972737e+02
   614.500   2.96431435e+02
   615.000   2.93934749e+02
   615.500   2.91482347e+02
   616.000   2.89073880e+02
   616.500   2.86708980e+02
   617.000   2.84387262e+02
   617.500   2.82108328e+02
   618.000   2.79871767e+02
   618.500   2.77677158e+02
   619.000   2.75524068e+02
   619.500   2.73412057e+02
   620.000   2.71340679e+02
   620.500   2.69309478e+02
   621.000   2.67317997e+02
   621.500   2.65365774e+02
   622.000   2.63452343e+02
   622.500   2.61577238e+02
   623.000   2.59739989e+02
   623.500   2.57940127e+02
   624.000   2.56177185e+02
   624.500   2.54450694e+02
   625.000   2.52760188e+02
   625.500   2.51105202e+02
   626.000   2.49485276e+02
   626.500   2.47899950e+02
   627.000   2.46348771e+02
   627.500   2.44831286e+02
   628.000   2.43347050e+02
   628.500   2.41895620e+02
   629.000   2.40476559e+02
   629.500   2.39089436e+02
   630.000   2.37733824e+02
   630.500   2.36409302e+02
   631.000   2.35115457e+02
   631.500   2.33851878e+02
   632.000   2.32618164e+02
   632.500   2.31413920e+02
   633.000   2.30238754e+02
   633.500   2.29092285e+02
   634.000   2.27974135e+02
   634.500   2.26883937e+02
   635.000   2.25821327e+02
   635.500   2.24785949e+02
   636.000   2.23777454e+02
   636.500   2.22795501e+02
   637.000   2.21839756e+02
   637.500   2.20909889e+02
   638.000   2.20005580e+02
   638.500   2.19126515e+02
   639.000   2.18272387e+02
   639.500   2.17442897e+02
   640.000   2.16637750e+02
   640.500   2.15856662e+02
   641.000   2.15099352e+02
   641.500   2.14365548e+02
   642.000   2.13654985e+02
   642.500   2.12967404e+02
   643.000   2.12302552e+02
   643.500   2.11660184e+02
   644.000   2.11040061e+02
   644.500   2.10441950e+02
   645.000   2.09865627e+02
   645.500   2.09310871e+02
   646.000   2.08777470e+02
   646.500   2.08265217e+02
   647.000   2.07773912e+02
   647.500   2.07303360e+02
   648.000   2.06853374e+02
   648.500   2.06423773e+02
   649.000   2.06014379e+02
   649.500   2.05625025e+02
   650.000   2.05255546e+02
   650.500   2.04905784e+02
   651.000   2.04575587e+02
   651.500   2.04264810e+02
   652.000   2.03973313e+02
   652.500   2.03700959e+02
   653.000   2.03447622e+02
   653.500   2.03213176e+02
   654.000   2.02997505e+02
   654.500   2.02800496e+02
   655.000   2.02622042e+02
   655.500   2.02462042e+02
   656.000   2.02320401e+02
   656.500   2.02197027e+02
   657.000   2.02091834e+02
   657.500   2.02004745e+02
   658.000   2.01935682e+02
   658.500   2.01884577e+02
   659.000   2.01851366e+02
   659.500   2.01835989e+02
   660.000   2.01838391e+02
   660.500   2.01858525e+02
   661.000   2.01896346e+02
   661.500   2.01951816e+02
   662.000   2.02024900e+02
   662.500   2.02115569e+02
   663.000   2.02223800e+02
   663.500   2.02349573e+02
   664.000   2.02492876e+02
   664.500   2.02653699e+02
   665.000   2.02832037e+02
   665.500   2.03027893e+02
   666.000   2.03241271e+02
   666.500   2.03472182e+02
   667.000   2.03720642e+02
   667.500   2.03986673e+02
   668.000   2.04270298e+02
   668.500   2.04571549e+02
   669.000   2.04890461e+02
   669.500   2.05227074e+02
   670.000   2.05581433e+02
   670.500   2.05953589e+02
   671.000   2.06343597e+02
   671.500   2.06751516e+02
   672.000   2.07177412e+02
   672.500   2.07621354e+02
   673.000   2.08083418e+02
   673.500   2.08563684e+02
   674.000   2.09062237e+02
   674.500   2.09579167e+02
   675.000   2.10114568e+02
   675.500   2.10668543e+02
   676.000   2.11241194e+02
   676.500   2.11832635e+02
   677.000   2.12442979e+02
   677.500   2.13072349e+02
   678.000   2.13720869e+02
   678.500   2.14388672e+02
   679.000   2.15075895e+02
   679.500   2.15782678e+02
   680.000   2.16509171e+02
   680.500   2.17255524e+02
   681.000   2.18021897e+02
   681.500   2.18808452e+02
   682.000   2.19615359e+02
   682.500   2.20442792e+02
   683.000   2.21290931e+02
   683.500   2.22159962e+02
   684.000   2.23050074e+02
   684.500   2.23961466e+02
   685.000   2.24894339e+02
   685.500   2.25848901e+02
   686.000   2.26825365e+02
   686.500   2.27823951e+02
   687.000   2.28844883e+02
   687.500   2.29888393e+02
   688.000   2.30954715e+02
   688.500   2.32044092e+02
   689.000   2.33156773e+02
   689.500   2.34293010e+02
   690.000   2.35453062e+02
   690.500   2.36637195e+02
   691.000   2.37845680e+02
   691.500   2.39078792e+02
   692.000   2.40336814e+02
   692.500   2.41620034e+02
   693.000   2.42928745e+02
   693.500   2.44263247e+02
   694.000   2.45623845e+02
   694.500   2.47010848e+02
   695.000   2.48424574e+02
   695.500   2.49865342e+02
   696.000   2.51333481e+02
   696.500   2.52829322e+02
   697.000   2.54353204e+02
   697.500   2.55905468e+02
   698.000   2.57486462e+02
   698.500   2.59096541e+02
   699.000   2.60736061e+02
   699.500   2.62405385e+02
   700.000   2.64104882e+02
   700.500   2.65834923e+02
   701.000   2.67595886e+02
   701.500   2.69388151e+02
   702.000   2.71212104e+02
   702.500   2.73068136e+02
   703.000   2.74956639e+02
   703.500   2.76878012e+02
   704.000   2.78832656e+02
   704.500   2.80820977e+02
   705.000   2.82843384e+02
   705.500   2.84900290e+02
   706.000   2.86992110e+02
   706.500   2.89119264e+02
   707.000   2.91282174e+02
   707.500   2.93481267e+02
   708.000   2.95716970e+02
   708.500   2.97989717e+02
   709.000   3.00299941e+02
   709.500   3.02648083e+02
   710.000   3.05034583e+02
   710.500   3.07459886e+02
   711.000   3.09924442e+02
   711.500   3.12428701e+02
   712.000   3.14973122e+02
   712.500   3.17558163e+02
   713.000   3.20184290e+02
   713.500   3.22851973e+02
   714.000   3.25561688e+02
   714.500   3.28313915e+02
   715.000   3.31109144e+02
   715.500   3.33947868e+02
   716.000   3.36830591e+02
   716.500   3.39757826e+02
   717.000   3.42730094e+02
   717.500   3.45747927e+02
   718.000   3.48811870e+02
   718.500   3.51922481e+02
   719.000   3.55080329e+02
   719.500   3.58286003e+02
   720.000   3.61540106e+02
   720.500   3.64843259e+02
   721.000   3.68196104e+02
   721.500   3.71599305e+02
   722.000   3.75053545e+02
   722.500   3.78559537e+02
   723.000   3.82118015e+02
   723.500   3.85729744e+02
   724.000   3.89395518e+02
   724.500   3.93116159e+02
   725.000   3.96892526e+02
   725.500   4.00725510e+02
   726.000   4.04616037e+02
   726.500   4.08565072e+02
   727.000   4.12573618e+02
   727.500   4.16642717e+02
   728.000   4.20773452e+02
   728.500   4.24966949e+02
   729.000   4.29224377e+02
   729.500   4.33546945e+02
   730.000   4.37935911e+02
   730.500   4.42392573e+02
   731.000   4.46918277e+02
   731.500   4.51514411e+02
   732.000   4.56182407e+02
   732.500   4.60923743e+02
   733.000   4.65739937e+02
   733.500   4.70632551e+02
   734.000   4.75603188e+02
   734.500   4.80653488e+02
   735.000   4.85785132e+02
   735.500   4.90999834e+02
   736.000   4.96299343e+02
   736.500   5.01685442e+02
   737.000   5.07159939e+02
   737.500   5.12724672e+02
   738.000   5.18381500e+02
   738.500   5.24132303e+02
   739.000   5.29978978e+02
   739.500   5.35923437e+02
   740.000   5.41967600e+02
   740.500   5.48113394e+02
   741.000   5.54362745e+02
   741.500   5.60717580e+02
   742.000   5.67179818e+02
   742.500   5.73751363e+02
   743.000   5.80434107e+02
   743.500   5.87229916e+02
   744.000   5.94140631e+02
   744.500   6.01168059e+02
   745.000   6.08313969e+02
   745.500   6.15580085e+02
   746.000   6.22968078e+02
   746.500   6.30479563e+02
   747.000   6.38116090e+02
   747.500   6.45879136e+02
   748.000   6.53770098e+02
   748.500   6.61790288e+02
   749.000   6.69940918e+02
   749.500   6.78223099e+02
   750.000   6.86637826e+02
   750.500   6.95185973e+02
   751.000   7.03868279e+02
   751.500   7.12685342e+02
   752.000   7.21637604e+02
   752.500   7.30725344e+02
   753.000   7.39948662e+02
   753.500   7.49307471e+02
   754.000   7.58801483e+02
   754.500   7.68430195e+02
   755.000   7.78192876e+02
   755.500   7.88088555e+02
   756.000   7.98116004e+02
   756.500   8.08273726e+02
   757.000   8.18559937e+02
   757.500   8.28972554e+02
   758.000   8.39509177e+02
   758.500   8.50167075e+02
   759.000   8.60943169e+02
   759.500   8.71834015e+02
   760.000   8.82835790e+02
   760.500   8.93944274e+02
   761.000   9.05154838e+02
   761.500   9.16462422e+02
   762.000   9.27861526e+02
   762.500   9.39346192e+02
   763.000   9.50909991e+02
   763.500   9.62546010e+02
   764.000   9.74246839e+02
   764.500   9.86004562e+02
   765.000   9.97810744e+02
   765.500   1.00965643e+03
   766.000   1.02153212e+03
   766.500   1.03342779e+03
   767.000   1.04533288e+03
   767.500   1.05723629e+03
   768.000   1.06912636e+03
   768.500   1.08099094e+03
   769.000   1.09281733e+03
   769.500   1.10459231e+03
   770.000   1.11630220e+03
   770.500   1.12793282e+03
   771.000   1.13946952e+03
   771.500   1.15089724e+03
   772.000   1.16220053e+03
   772.500   1.17336354e+03
   773.000   1.18437012e+03
   773.500   1.19520382e+03
   774.000   1.20584796e+03
   774.500   1.21628565e+03
   775.000   1.22649990e+03
   775.500   1.23647359e+03
   776.000   1.24618964e+03
   776.500   1.25563097e+03
   777.000   1.26478063e+03
   777.500   1.27362187e+03
   778.000   1.28213817e+03
   778.500   1.29031335e+03
   779.000   1.29813164e+03
   779.500   1.30557773e+03
   780.000   1.31263688e+03
   780.500   1.31929496e+03
   781.000   1.32553856e+03
   781.500   1.33135503e+03
   782.000   1.33673254e+03
   782.500   1.34166019e+03
   783.000   1.34612803e+03
   783.500   1.35012713e+03
   784.000   1.35364962e+03
   784.500   1.35668876e+03
   785.000   1.35923895e+03
   785.500   1.36129578e+03
   786.000   1.36285604e+03
   786.500   1.36391778e+03
   787.000   1.36448024e+03
   787.500   1.36454394e+03
   788.000   1.36411061e+03
   788.500   1.36318323e+03
   789.000   1.36176596e+03
   789.500   1.35986415e+03
   790.000   1.35748428e+03
   790.500   1.35463396e+03
   791.000   1.35132183e+03
   791.500   1.34755756e+03
   792.000   1.34335175e+03
   792.500   1.33871590e+03
   793.000   1.33366234e+03
   793.500   1.32820415e+03
   794.000   1.32235510e+03
   794.500   1.31612956e+03
   795.000   1.30954248e+03
   795.500   1.30260925e+03
   796.000   1.29534566e+03
   796.500   1.28776784e+03
   797.000   1.27989215e+03
   797.500   1.27173517e+03
   798.000   1.26331355e+03
   798.500   1.25464403e+03
   799.000   1.24574332e+03
   799.500   1.23662808e+03
   800.000   1.22731481e+03
   800.500   1.21781987e+03
   801.000   1.20815938e+03
   801.500   1.19834920e+03
   802.000   1.18840487e+03
   802.500   1.17834161e+03
   803.000   1.16817423e+03
   803.500   1.15791717e+03
   804.000   1.14758442e+03
   804.500   1.13718953e+03
   805.000   1.12674559e+03
   805.500   1.11626518e+03
   806.000   1.10576043e+03
   806.500   1.09524294e+03
   807.000   1.08472383e+03
   807.500   1.07421368e+03
   808.000   1.06372261e+03
   808.500   1.05326019e+03
   809.000   1.04283552e+03
   809.500   1.03245720e+03
   810.000   1.02213335e+03
   810.500   1.01187160e+03
   811.000   1.00167912e+03
   811.500   9.91562630e+02
   812.000   9.81528409e+02
   812.500   9.71582303e+02
   813.000   9.61729745e+02
   813.500   9.51975769e+02
   814.000   9.42325024e+02
   814.500   9.32781788e+02
   815.000   9.23349983e+02
   815.500   9.14033195e+02
   816.000   9.04834683e+02
   816.500   8.95757398e+02
   817.000   8.86803997e+02
   817.500   8.77976858e+02
   818.000   8.69278096e+02
   818.500   8.60709573e+02
   819.000   8.52272919e+02
   819.500   8.43969540e+02
   820.000   8.35800631e+02
   820.500   8.27767196e+02
   821.000   8.19870049e+02
   821.500   8.12109839e+02
   822.000   8.04487049e+02
   822.500   7.97002018e+02
   823.000   7.89654942e+02
   823.500   7.82445893e+02
   824.000   7.75374823e+02
   824.500   7.68441574e+02
   825.000   7.61645890e+02
   825.500   7.54987420e+02
   826.000   7.48465734e+02
   826.500   7.42080322e+02
   827.000   7.35830607e+02
   827.500   7.29715950e+02
   828.000   7.23735656e+02
   828.500   7.17888980e+02
   829.000   7.12175135e+02
   829.500   7.06593294e+02
   830.000   7.01142600e+02
   830.500   6.95822163e+02
   831.000   6.90631075e+02
   831.500   6.85568403e+02
   832.000   6.80633202e+02
   832.500   6.75824514e+02
   833.000   6.71141372e+02
   833.500   6.66582806e+02
   834.000   6.62147842e+02
   834.500   6.57835506e+02
   835.000   6.53644830e+02
   835.500   6.49574849e+02
   836.000   6.45624609e+02
   836.500   6.41793162e+02
   837.000   6.38079576e+02
   837.500   6.34482930e+02
   838.000   6.31002320e+02
   838.500   6.27636856e+02
   839.000   6.24385671e+02
   839.500   6.21247912e+02
   840.000   6.18222750e+02
   840.500   6.15309377e+02
   841.000   6.12507005e+02
   841.500   6.09814872e+02
   842.000   6.07232239e+02
   842.500   6.04758390e+02
   843.000   6.02392636e+02
   843.500   6.00134312e+02
   844.000   5.97982777e+02
   844.500   5.95937420e+02
   845.000   5.93997653e+02
   845.500   5.92162915e+02
   846.000   5.90432671e+02
   846.500   5.88806413e+02
   847.000   5.87283657e+02
   847.500   5.85863947e+02
   848.000   5.84546851e+02
   848.500   5.83331963e+02
   849.000   5.82218901e+02
   849.500   5.81207309e+02
   850.000   5.80296852e+02
   850.500   5.79487221e+02
   851.000   5.78778127e+02
   851.500   5.78169303e+02
   852.000   5.77660503e+02
   852.500   5.77251502e+02
   853.000   5.76942090e+02
   853.500   5.76732078e+02
   854.000   5.76621291e+02
   854.500   5.76609571e+02
   855.000   5.76696770e+02
   855.500   5.76882755e+02
   856.000   5.77167401e+02
   856.500   5.77550592e+02
   857.000   5.78032219e+02
   857.500   5.78612176e+02
   858.000   5.79290360e+02
   858.500   5.80066668e+02
   859.000   5.80940994e+02
   859.500   5.81913225e+02
   860.000   5.82983244e+02
   860.500   5.84150918e+02
   861.000   5.85416102e+02
   861.500   5.86778635e+02
   862.000   5.88238333e+02
   862.500   5.89794987e+02
   863.000   5.91448361e+02
   863.500   5.93198184e+02
   864.000   5.95044151e+02
   864.500   5.96985912e+02
   865.000   5.99023075e+02
   865.500   6.01155192e+02
   866.000   6.03381763e+02
   866.500   6.05702223e+02
   867.000   6.08115941e+02
   867.500   6.10622214e+02
   868.000   6.13220258e+02
   868.500   6.15909205e+02
   869.000   6.18688093e+02
   869.500   6.21555863e+02
   870.000   6.24511352e+02
   870.500   6.27553281e+02
   871.000   6.30680254e+02
   871.500   6.33890748e+02
   872.000   6.37183103e+02
   872.500   6.40555522e+02
   873.000   6.44006053e+02
   873.500   6.47532592e+02
   874.000   6.51132866e+02
   874.500   6.54804433e+02
   875.000   6.58544670e+02
   875.500   6.62350767e+02
   876.000   6.66219721e+02
   876.500   6.70148329e+02
   877.000   6.74133178e+02
   877.500   6.78170644e+02
   878.000   6.82256884e+02
   878.500   6.86387831e+02
   879.000   6.90559192e+02
   879.500   6.94766438e+02
   880.000   6.99004811e+02
   880.500   7.03269313e+02
   881.000   7.07554710e+02
   881.500   7.11855533e+02
   882.000   7.16166076e+02
   882.500   7.20480401e+02
   883.000   7.24792344e+02
   883.500   7.29095517e+02
   884.000   7.33383316e+02
   884.500   7.37648934e+02
   885.000   7.41885366e+02
   885.500   7.46085427e+02
   886.000   7.50241759e+02
   886.500   7.54346857e+02
   887.000   7.58393078e+02
   887.500   7.62372664e+02
   888.000   7.66277767e+02
   888.500   7.70100467e+02
   889.000   7.73832801e+02
   889.500   7.77466787e+02
   890.000   7.80994457e+02
   890.500   7.84407880e+02
   891.000   7.87699200e+02
   891.500   7.90860662e+02
   892.000   7.93884650e+02
   892.500   7.96763717e+02
   893.000   7.99490620e+02
   893.500   8.02058353e+02
   894.000   8.04460185e+02
   894.500   8.06689685e+02
   895.000   8.08740766e+02
   895.500   8.10607704e+02
   896.000   8.12285178e+02
   896.500   8.13768293e+02
   897.000   8.15052609e+02
   897.500   8.16134166e+02
   898.000   8.17009500e+02
   898.500   8.17675670e+02
   899.000   8.18130269e+02
   899.500   8.18371439e+02
   900.000   8.18397880e+02
   900.500   8.18208857e+02
   901.000   8.17804203e+02
   901.500   8.17184318e+02
   902.000   8.16350166e+02
   902.500   8.15303267e+02
   903.000   8.14045687e+02
   903.500   8.12580024e+02
   904.000   8.10909393e+02
   904.500   8.09037402e+02
   905.000   8.06968135e+02
   905.500   8.04706125e+02
   906.000   8.02256324e+02
   906.500   7.99624083e+02
   907.000   7.96815113e+02
   907.500   7.93835458e+02
   908.000   7.90691464e+02
   908.500   7.87389741e+02
   909.000   7.83937134e+02
   909.500   7.80340690e+02
   910.000   7.76607620e+02
   910.500   7.72745272e+02
   911.000   7.68761093e+02
   911.500   7.64662604e+02
   912.000   7.60457362e+02
   912.500   7.56152941e+02
   913.000   7.51756893e+02
   913.500   7.47276733e+02
   914.000   7.42719906e+02
   914.500   7.38093769e+02
   915.000   7.33405568e+02
   915.500   7.28662420e+02
   916.000   7.23871294e+02
   916.500   7.19038998e+02
   917.000   7.14172161e+02
   917.500   7.09277225e+02
   918.000   7.04360435e+02
   918.500   6.99427824e+02
   919.000   6.94485214e+02
   919.500   6.89538203e+02
   920.000   6.84592169e+02
   920.500   6.79652258e+02
   921.000   6.74723388e+02
   921.500   6.69810248e+02
   922.000   6.64917297e+02
   922.500   6.60048768e+02
   923.000   6.55208665e+02
   923.500   6.50400773e+02
   924.000   6.45628659e+02
   924.500   6.40895673e+02
   925.000   6.36204959e+02
   925.500   6.31559459e+02
   926.000   6.26961913e+02
   926.500   6.22414875e+02
   927.000   6.17920711e+02
   927.500   6.13481611e+02
   928.000   6.09099593e+02
   928.500   6.04776511e+02
   929.000   6.00514062e+02
   929.500   5.96313793e+02
   930.000   5.92177108e+02
   930.500   5.88105275e+02
   931.000   5.84099432e+02
   931.500   5.80160594e+02
   932.000   5.76289662e+02
   932.500   5.72487427e+02
   933.000   5.68754576e+02
   933.500   5.65091699e+02
   934.000   5.61499296e+02
   934.500   5.57977783e+02
   935.000   5.54527493e+02
   935.500   5.51148689e+02
   936.000   5.47841563e+02
   936.500   5.44606242e+02
   937.000   5.41442796e+02
   937.500   5.38351239e+02
   938.000   5.35331535e+02
   938.500   5.32383603e+02
   939.000   5.29507318e+02
   939.500   5.26702519e+02
   940.000   5.23969009e+02
   940.500   5.21306559e+02
   941.000   5.18714913e+02
   941.500   5.16193790e+02
   942.000   5.13742887e+02
   942.500   5.11361881e+02
   943.000   5.09050432e+02
   943.500   5.06808186e+02
   944.000   5.04634778e+02
   944.500   5.02529831e+02
   945.000   5.00492962e+02
   945.500   4.98523780e+02
   946.000   4.96621891e+02
   946.500   4.94786898e+02
   947.000   4.93018405e+02
   947.500   4.91316013e+02
   948.000   4.89679326e+02
   948.500   4.88107953e+02
   949.000   4.86601504e+02
   949.500   4.85159598e+02
   950.000   4.83781856e+02
   950.500   4.82467911e+02
   951.000   4.81217402e+02
   951.500   4.80029975e+02
   952.000   4.78905289e+02
   952.500   4.77843011e+02
   953.000   4.76842822e+02
   953.500   4.75904413e+02
   954.000   4.75027485e+02
   954.500   4.74211756e+02
   955.000   4.73456955e+02
   955.500   4.72762823e+02
   956.000   4.72129118e+02
   956.500   4.71555610e+02
   957.000   4.71042086e+02
   957.500   4.70588345e+02
   958.000   4.70194202e+02
   958.500   4.69859488e+02
   959.000   4.69584049e+02
   959.500   4.69367747e+02
   960.000   4.69210458e+02
   960.500   4.69112076e+02
   961.000   4.69072509e+02
   961.500   4.69091683e+02
   962.000   4.69169536e+02
   962.500   4.69306026e+02
   963.000   4.69501124e+02
   963.500   4.69754818e+02
   964.000   4.70067112e+02
   964.500   4.70438023e+02
   965.000   4.70867586e+02
   965.500   4.71355849e+02
   966.000   4.71902878e+02
   966.500   4.72508750e+02
   967.000   4.73173559e+02
   967.500   4.73897411e+02
   968.000   4.74680429e+02
   968.500   4.75522746e+02
   969.000   4.76424510e+02
   969.500   4.77385880e+02
   970.000   4.78407030e+02
   970.500   4.79488142e+02
   971.000   4.80629413e+02
   971.500   4.81831046e+02
   972.000   4.83093256e+02
   972.500   4.84416270e+02
   973.000   4.85800317e+02
   973.500   4.87245639e+02
   974.000   4.88752483e+02
   974.500   4.90321100e+02
   975.000   4.91951748e+02
   975.500   4.93644688e+02
   976.000   4.95400184e+02
   976.500   4.97218500e+02
   977.000   4.99099901e+02
   977.500   5.01044651e+02
   978.000   5.03053011e+02
   978.500   5.05125238e+02
   979.000   5.07261584e+02
   979.500   5.09462291e+02
   980.000   5.11727595e+02
   980.500   5.14057718e+02
   981.000   5.16452871e+02
   981.500   5.18913248e+02
   982.000   5.21439027e+02
   982.500   5.24030365e+02
   983.000   5.26687398e+02
   983.500   5.29410237e+02
   984.000   5.32198964e+02
   984.500   5.35053635e+02
   985.000   5.37974269e+02
   985.500   5.40960852e+02
   986.000   5.44013329e+02
   986.500   5.47131605e+02
   987.000   5.50315540e+02
   987.500   5.53564943e+02
   988.000   5.56879574e+02
   988.500   5.60259137e+02
   989.000   5.63703276e+02
   989.500   5.67211575e+02
   990.000   5.70783549e+02
   990.500   5.74418648e+02
   991.000   5.78116245e+02
   991.500   5.81875639e+02
   992.000   5.85696047e+02
   992.500   5.89576606e+02
   993.000   5.93516364e+02
   993.500   5.97514278e+02
   994.000   6.01569216e+02
   994.500   6.05679948e+02
   995.000   6.09845146e+02
   995.500   6.14063383e+02
   996.000   6.18333129e+02
   996.500   6.22652751e+02
   997.000   6.27020510e+02
   997.500   6.31434563e+02
   998.000   6.35892959e+02
   998.500   6.40393646e+02
   999.000   6.44934462e+02
   999.500   6.49513146e+02
  1000.000   6.54127337e+02
  1000.500   6.58774574e+02
  1001.000   6.63452303e+02
  1001.500   6.68157883e+02
  1002.000   6.72888587e+02
  1002.500   6.77641613e+02
  1003.000   6.82414085e+02
  1003.500   6.87203070e+02
  1004.000   6.92005579e+02
  1004.500   6.96818579e+02
  1005.000   7.01639007e+02
  1005.500   7.06463777e+02
  1006.000   7.11289796e+02
  1006.500   7.16113975e+02
  1007.000   7.20933244e+02
  1007.500   7.25744565e+02
  1008.000   7.30544951e+02
  1008.500   7.35331476e+02
  1009.000   7.40101295e+02
  1009.500   7.44851660e+02
  1010.000   7.49579933e+02
  1010.500   7.54283607e+02
  1011.000   7.58960318e+02
  1011.500   7.63607863e+02
  1012.000   7.68224215e+02
  1012.500   7.72807538e+02
  1013.000   7.77356199e+02
  1013.500   7.81868784e+02
  1014.000   7.86344109e+02
  1014.500   7.90781228e+02
  1015.000   7.95179446e+02
  1015.500   7.99538328e+02
  1016.000   8.03857700e+02
  1016.500   8.08137660e+02
  1017.000   8.12378574e+02
  1017.500   8.16581086e+02
  1018.000   8.20746110e+02
  1018.500   8.24874832e+02
  1019.000   8.28968703e+02
  1019.500   8.33029436e+02
  1020.000   8.37058996e+02
  1020.500   8.41059590e+02
  1021.000   8.45033658e+02
  1021.500   8.48983858e+02
  1022.000   8.52913053e+02
  1022.500   8.56824297e+02
  1023.000   8.60720814e+02
  1023.500   8.64605984e+02
  1024.000   8.68483322e+02
  1024.500   8.72356460e+02
  1025.000   8.76229123e+02
  1025.500   8.80105113e+02
  1026.000   8.83988285e+02
  1026.500   8.87882525e+02
  1027.000   8.91791728e+02
  1027.500   8.95719780e+02
  1028.000   8.99670530e+02
  1028.500   9.03647774e+02
  1029.000   9.07655232e+02
  1029.500   9.11696526e+02
  1030.000   9.15775163e+02
  1030.500   9.19894509e+02
  1031.000   9.24057778e+02
  1031.500   9.28268008e+02
  1032.000   9.32528043e+02
  1032.500   9.36840521e+02
  1033.000   9.41207850e+02
  1033.500   9.45632201e+02
  1034.000   9.50115486e+02
  1034.500   9.54659349e+02
  1035.000   9.59265150e+02
  1035.500   9.63933956e+02
  1036.000   9.68666526e+02
  1036.500   9.73463304e+02
  1037.000   9.78324408e+02
  1037.500   9.83249622e+02
  1038.000   9.88238388e+02
  1038.500   9.93289800e+02
  1039.000   9.98402601e+02
  1039.500   1.00357517e+03
  1040.000   1.00880554e+03
  1040.500   1.01409137e+03
  1041.000   1.01942995e+03
  1041.500   1.02481822e+03
  1042.000   1.03025276e+03
  1042.500   1.03572979e+03
  1043.000   1.04124517e+03
  1043.500   1.04679443e+03
  1044.000   1.05237275e+03
  1044.500   1.05797500e+03
  1045.000   1.06359573e+03
  1045.500   1.06922917e+03
  1046.000   1.07486929e+03
  1046.500   1.08050978e+03
  1047.000   1.08614409e+03
  1047.500   1.09176544e+03
  1048.000   1.09736684e+03
  1048.500   1.10294113e+03
  1049.000   1.10848101e+03
  1049.500   1.11397904e+03
  1050.000   1.11942771e+03
  1050.500   1.12481944e+03
  1051.000   1.13014663e+03
  1051.500   1.13540171e+03
  1052.000   1.14057713e+03
  1052.500   1.14566547e+03
  1053.000   1.15065940e+03
  1053.500   1.15555178e+03
  1054.000   1.16033567e+03
  1054.500   1.16500437e+03
  1055.000   1.16955148e+03
  1055.500   1.17397093e+03
  1056.000   1.17825697e+03
  1056.500   1.18240431e+03
  1057.000   1.18640804e+03
  1057.500   1.19026374e+03
  1058.000   1.19396748e+03
  1058.500   1.19751586e+03
  1059.000   1.20090603e+03
  1059.500   1.20413569e+03
  1060.000   1.20720314e+03
  1060.500   1.21010729e+03
  1061.000   1.21284766e+03
  1061.500   1.21542439e+03
  1062.000   1.21783824e+03
  1062.500   1.22009059e+03
  1063.000   1.22218347e+03
  1063.500   1.22411947e+03
  1064.000   1.22590183e+03
  1064.500   1.22753435e+03
  1065.000   1.22902138e+03
  1065.500   1.23036784e+03
  1066.000   1.23157915e+03
  1066.500   1.23266123e+03
  1067.000   1.23362043e+03
  1067.500   1.23446357e+03
  1068.000   1.23519783e+03
  1068.500   1.23583073e+03
  1069.000   1.23637015e+03
  1069.500   1.23682421e+03
  1070.000   1.23720129e+03
  1070.500   1.23750997e+03
  1071.000   1.23775897e+03
  1071.500   1.23795716e+03
  1072.000   1.23811348e+03
  1072.500   1.23823692e+03
  1073.000   1.23833648e+03
  1073.500   1.23842113e+03
  1074.000   1.23849979e+03
  1074.500   1.23858128e+03
  1075.000   1.23867431e+03
  1075.500   1.23878741e+03
  1076.000   1.23892895e+03
  1076.500   1.23910710e+03
  1077.000   1.23932978e+03
  1077.500   1.23960467e+03
  1078.000   1.23993916e+03
  1078.500   1.24034035e+03
  1079.000   1.24081505e+03
  1079.500   1.24136970e+03
  1080.000   1.24201043e+03
  1080.500   1.24274299e+03
  1081.000   1.24357278e+03
  1081.500   1.24450479e+03
  1082.000   1.24554365e+03
  1082.500   1.24669357e+03
  1083.000   1.24795835e+03
  1083.500   1.24934138e+03
  1084.000   1.25084563e+03
  1084.500   1.25247364e+03
  1085.000   1.25422751e+03
  1085.500   1.25610890e+03
  1086.000   1.25811904e+03
  1086.500   1.26025870e+03
  1087.000   1.26252822e+03
  1087.500   1.26492748e+03
  1088.000   1.26745589e+03
  1088.500   1.27011243e+03
  1089.000   1.27289561e+03
  1089.500   1.27580349e+03
  1090.000   1.27883368e+03
  1090.500   1.28198332e+03
  1091.000   1.28524911e+03
  1091.500   1.28862730e+03
  1092.000   1.29211368e+03
  1092.500   1.29570361e+03
  1093.000   1.29939201e+03
  1093.500   1.30317336e+03
  1094.000   1.30704172e+03
  1094.500   1.31099075e+03
  1095.000   1.31501368e+03
  1095.500   1.31910338e+03
  1096.000   1.32325232e+03
  1096.500   1.32745260e+03
  1097.000   1.33169600e+03
  1097.500   1.33597395e+03
  1098.000   1.34027760e+03
  1098.500   1.34459781e+03
  1099.000   1.34892517e+03
  1099.500   1.35325005e+03
  1100.000   1.35756263e+03
  1100.500   1.36185291e+03
  1101.000   1.36611077e+03
  1101.500   1.37032598e+03
  1102.000   1.37448824e+03
  1102.500   1.37858724e+03
  1103.000   1.38261269e+03
  1103.500   1.38655435e+03
  1104.000   1.39040206e+03
  1104.500   1.39414584e+03
  1105.000   1.39777587e+03
  1105.500   1.40128256e+03
  1106.000   1.40465660e+03
  1106.500   1.40788897e+03
  1107.000   1.41097105e+03
  1107.500   1.41389457e+03
  1108.000   1.41665172e+03
  1108.500   1.41923516e+03
  1109.000   1.42163804e+03
  1109.500   1.42385407e+03
  1110.000   1.42587751e+03
  1110.500   1.42770323e+03
  1111.000   1.42932670e+03
  1111.500   1.43074403e+03
  1112.000   1.43195200e+03
  1112.500   1.43294803e+03
  1113.000   1.43373022e+03
  1113.500   1.43429735e+03
  1114.000   1.43464888e+03
  1114.500   1.43478493e+03
  1115.000   1.43470630e+03
  1115.500   1.43441441e+03
  1116.000   1.43391137e+03
  1116.500   1.43319988e+03
  1117.000   1.43228324e+03
  1117.500   1.43116534e+03
  1118.000   1.42985062e+03
  1118.500   1.42834405e+03
  1119.000   1.42665109e+03
  1119.500   1.42477766e+03
  1120.000   1.42273013e+03
  1120.500   1.42051525e+03
  1121.000   1.41814016e+03
  1121.500   1.41561231e+03
  1122.000   1.41293947e+03
  1122.500   1.41012966e+03
  1123.000   1.40719115e+03
  1123.500   1.40413241e+03
  1124.000   1.40096207e+03
  1124.500   1.39768892e+03
  1125.000   1.39432184e+03
  1125.500   1.39086982e+03
  1126.000   1.38734189e+03
  1126.500   1.38374712e+03
  1127.000   1.38009459e+03
  1127.500   1.37639336e+03
  1128.000   1.37265247e+03
  1128.500   1.36888089e+03
  1129.000   1.36508754e+03
  1129.500   1.36128123e+03
  1130.000   1.35747069e+03
  1130.500   1.35366450e+03
  1131.000   1.34987114e+03
  1131.500   1.34609892e+03
  1132.000   1.34235601e+03
  1132.500   1.33865040e+03
  1133.000   1.33498993e+03
  1133.500   1.33138222e+03
  1134.000   1.32783472e+03
  1134.500   1.32435467e+03
  1135.000   1.32094912e+03
  1135.500   1.31762488e+03
  1136.000   1.31438856e+03
  1136.500   1.31124654e+03
  1137.000   1.30820497e+03
  1137.500   1.30526978e+03
  1138.000   1.30244664e+03
  1138.500   1.29974102e+03
  1139.000   1.29715810e+03
  1139.500   1.29470285e+03
  1140.000   1.29237997e+03
  1140.500   1.29019394e+03
  1141.000   1.28814896e+03
  1141.500   1.28624900e+03
  1142.000   1.28449774e+03
  1142.500   1.28289865e+03
  1143.000   1.28145491e+03
  1143.500   1.28016946e+03
  1144.000   1.27904496e+03
  1144.500   1.27808383e+03
  1145.000   1.27728823e+03
  1145.500   1.27666003e+03
  1146.000   1.27620086e+03
  1146.500   1.27591208e+03
  1147.000   1.27579477e+03
  1147.500   1.27584976e+03
  1148.000   1.27607760e+03
  1148.500   1.27647857e+03
  1149.000   1.27705268e+03
  1149.500   1.27779965e+03
  1150.000   1.27871893e+03
  1150.500   1.27980971e+03
  1151.000   1.28107086e+03
  1151.500   1.28250101e+03
  1152.000   1.28409847e+03
  1152.500   1.28586127e+03
  1153.000   1.28778717e+03
  1153.500   1.28987360e+03
  1154.000   1.29211774e+03
  1154.500   1.29451643e+03
  1155.000   1.29706625e+03
  1155.500   1.29976346e+03
  1156.000   1.30260403e+03
  1156.500   1.30558364e+03
  1157.000   1.30869765e+03
  1157.500   1.31194113e+03
  1158.000   1.31530886e+03
  1158.500   1.31879534e+03
  1159.000   1.32239473e+03
  1159.500   1.32610096e+03
  1160.000   1.32990764e+03
  1160.500   1.33380812e+03
  1161.000   1.33779547e+03
  1161.500   1.34186250e+03
  1162.000   1.34600177e+03
  1162.500   1.35020559e+03
  1163.000   1.35446604e+03
  1163.500   1.35877497e+03
  1164.000   1.36312403e+03
  1164.500   1.36750468e+03
  1165.000   1.37190820e+03
  1165.500   1.37632568e+03
  1166.000   1.38074811e+03
  1166.500   1.38516633e+03
  1167.000   1.38957105e+03
  1167.500   1.39395293e+03
  1168.000   1.39830255e+03
  1168.500   1.40261043e+03
  1169.000   1.40686708e+03
  1169.500   1.41106300e+03
  1170.000   1.41518871e+03
  1170.500   1.41923477e+03
  1171.000   1.42319181e+03
  1171.500   1.42705055e+03
  1172.000   1.43080181e+03
  1172.500   1.43443655e+03
  1173.000   1.43794587e+03
  1173.500   1.44132106e+03
  1174.000   1.44455359e+03
  1174.500   1.44763517e+03
  1175.000   1.45055773e+03
  1175.500   1.45331345e+03
  1176.000   1.45589481e+03
  1176.500   1.45829456e+03
  1177.000   1.46050578e+03
  1177.500   1.46252187e+03
  1178.000   1.46433657e+03
  1178.500   1.46594400e+03
  1179.000   1.46733864e+03
  1179.500   1.46851537e+03
  1180.000   1.46946947e+03
  1180.500   1.47019667e+03
  1181.000   1.47069309e+03
  1181.500   1.47095532e+03
  1182.000   1.47098042e+03
  1182.500   1.47076588e+03
  1183.000   1.47030971e+03
  1183.500   1.46961038e+03
  1184.000   1.46866686e+03
  1184.500   1.46747862e+03
  1185.000   1.46604565e+03
  1185.500   1.46436844e+03
  1186.000   1.46244799e+03
  1186.500   1.46028582e+03
  1187.000   1.45788395e+03
  1187.500   1.45524492e+03
  1188.000   1.45237177e+03
  1188.500   1.44926805e+03
  1189.000   1.44593777e+03
  1189.500   1.44238545e+03
  1190.000   1.43861604e+03
  1190.500   1.43463497e+03
  1191.000   1.43044809e+03
  1191.500   1.42606164e+03
  1192.000   1.42148229e+03
  1192.500   1.41671704e+03
  1193.000   1.41177327e+03
  1193.500   1.40665864e+03
  1194.000   1.40138113e+03
  1194.500   1.39594896e+03
  1195.000   1.39037059e+03
  1195.500   1.38465470e+03
  1196.000   1.37881011e+03
  1196.500   1.37284580e+03
  1197.000   1.36677086e+03
  1197.500   1.36059446e+03
  1198.000   1.35432582e+03
  1198.500   1.34797418e+03
  1199.000   1.34154877e+03
  1199.500   1.33505880e+03
  1200.000   1.32851339e+03
  1200.500   1.32192160e+03
  1201.000   1.31529238e+03
  1201.500   1.30863453e+03
  1202.000   1.30195672e+03
  1202.500   1.29526744e+03
  1203.000   1.28857498e+03
  1203.500   1.28188744e+03
  1204.000   1.27521271e+03
  1204.500   1.26855843e+03
  1205.000   1.26193201e+03
  1205.500   1.25534062e+03
  1206.000   1.24879117e+03
  1206.500   1.24229031e+03
  1207.000   1.23584441e+03
  1207.500   1.22945960e+03
  1208.000   1.22314173e+03
  1208.500   1.21689637e+03
  1209.000   1.21072883e+03
  1209.500   1.20464417e+03
  1210.000   1.19864717e+03
  1210.500   1.19274236e+03
  1211.000   1.18693401e+03
  1211.500   1.18122616e+03
  1212.000   1.17562258e+03
  1212.500   1.17012684e+03
  1213.000   1.16474226e+03
  1213.500   1.15947194e+03
  1214.000   1.15431878e+03
  1214.500   1.14928547e+03
  1215.000   1.14437451e+03
  1215.500   1.13958820e+03
  1216.000   1.13492869e+03
  1216.500   1.13039792e+03
  1217.000   1.12599770e+03
  1217.500   1.12172968e+03
  1218.000   1.11759536e+03
  1218.500   1.11359612e+03
  1219.000   1.10973318e+03
  1219.500   1.10600768e+03
  1220.000   1.10242063e+03
  1220.500   1.09897292e+03
  1221.000   1.09566538e+03
  1221.500   1.09249871e+03
  1222.000   1.08947356e+03
  1222.500   1.08659050e+03
  1223.000   1.08385000e+03
  1223.500   1.08125251e+03
  1224.000   1.07879839e+03
  1224.500   1.07648797e+03
  1225.000   1.07432153e+03
  1225.500   1.07229929e+03
  1226.000   1.07042146e+03
  1226.500   1.06868821e+03
  1227.000   1.06709967e+03
  1227.500   1.06565597e+03
  1228.000   1.06435722e+03
  1228.500   1.06320348e+03
  1229.000   1.06219485e+03
  1229.500   1.06133139e+03
  1230.000   1.06061317e+03
  1230.500   1.06004024e+03
  1231.000   1.05961267e+03
  1231.500   1.05933052e+03
  1232.000   1.05919388e+03
  1232.500   1.05920282e+03
  1233.000   1.05935743e+03
  1233.500   1.05965782e+03
  1234.000   1.06010410e+03
  1234.500   1.06069642e+03
  1235.000   1.06143491e+03
  1235.500   1.06231974e+03
  1236.000   1.06335110e+03
  1236.500   1.06452920e+03
  1237.000   1.06585426e+03
  1237.500   1.06732652e+03
  1238.000   1.06894626e+03
  1238.500   1.07071377e+03
  1239.000   1.07262935e+03
  1239.500   1.07469333e+03
  1240.000   1.07690608e+03
  1240.500   1.07926796e+03
  1241.000   1.08177938e+03
  1241.500   1.08444075e+03
  1242.000   1.08725249e+03
  1242.500   1.09021508e+03
  1243.000   1.09332897e+03
  1243.500   1.09659465e+03
  1244.000   1.10001263e+03
  1244.500   1.10358342e+03
  1245.000   1.10730754e+03
  1245.500   1.11118553e+03
  1246.000   1.11521792e+03
  1246.500   1.11940527e+03
  1247.000   1.12374812e+03
  1247.500   1.12824700e+03
  1248.000   1.13290248e+03
  1248.500   1.13771508e+03
  1249.000   1.14268532e+03
  1249.500   1.14781371e+03
  1250.000   1.15310075e+03
  1250.500   1.15854689e+03
  1251.000   1.16415259e+03
  1251.500   1.16991824e+03
  1252.000   1.17584422e+03
  1252.500   1.18193085e+03
  1253.000   1.18817842e+03
  1253.500   1.19458713e+03
  1254.000   1.20115717e+03
  1254.500   1.20788861e+03
  1255.000   1.21478148e+03
  1255.500   1.22183572e+03
  1256.000   1.22905117e+03
  1256.500   1.23642758e+03
  1257.000   1.24396459e+03
  1257.500   1.25166174e+03
  1258.000   1.25951841e+03
  1258.500   1.26753389e+03
  1259.000   1.27570730e+03
  1259.500   1.28403760e+03
  1260.000   1.29252362e+03
  1260.500   1.30116397e+03
  1261.000   1.30995712e+03
  1261.500   1.31890132e+03
  1262.000   1.32799461e+03
  1262.500   1.33723482e+03
  1263.000   1.34661955e+03
  1263.500   1.35614616e+03
  1264.000   1.36581175e+03
  1264.500   1.37561316e+03
  1265.000   1.38554696e+03
  1265.500   1.39560942e+03
  1266.000   1.40579653e+03
  1266.500   1.41610395e+03
  1267.000   1.42652704e+03
  1267.500   1.43706082e+03
  1268.000   1.44769999e+03
  1268.500   1.45843889e+03
  1269.000   1.46927150e+03
  1269.500   1.48019147e+03
  1270.000   1.49119205e+03
  1270.500   1.50226615e+03
  1271.000   1.51340631e+03
  1271.500   1.52460467e+03
  1272.000   1.53585303e+03
  1272.500   1.54714280e+03
  1273.000   1.55846503e+03
  1273.500   1.56981043e+03
  1274.000   1.58116932e+03
  1274.500   1.59253172e+03
  1275.000   1.60388730e+03
  1275.500   1.61522544e+03
  1276.000   1.62653520e+03
  1276.500   1.63780539e+03
  1277.000   1.64902456e+03
  1277.500   1.66018107e+03
  1278.000   1.67126304e+03
  1278.500   1.68225848e+03
  1279.000   1.69315524e+03
  1279.500   1.70394110e+03
  1280.000   1.71460380e+03
  1280.500   1.72513108e+03
  1281.000   1.73551071e+03
  1281.500   1.74573056e+03
  1282.000   1.75577866e+03
  1282.500   1.76564319e+03
  1283.000   1.77531261e+03
  1283.500   1.78477568e+03
  1284.000   1.79402149e+03
  1284.500   1.80303955e+03
  1285.000   1.81181984e+03
  1285.500   1.82035283e+03
  1286.000   1.82862959e+03
  1286.500   1.83664178e+03
  1287.000   1.84438174e+03
  1287.500   1.85184252e+03
  1288.000   1.85901793e+03
  1288.500   1.86590258e+03
  1289.000   1.87249188e+03
  1289.500   1.87878215e+03
  1290.000   1.88477058e+03
  1290.500   1.89045525e+03
  1291.000   1.89583521e+03
  1291.500   1.90091042e+03
  1292.000   1.90568181e+03
  1292.500   1.91015125e+03
  1293.000   1.91432154e+03
  1293.500   1.91819644e+03
  1294.000   1.92178061e+03
  1294.500   1.92507962e+03
  1295.000   1.92809990e+03
  1295.500   1.93084873e+03
  1296.000   1.93333418e+03
  1296.500   1.93556511e+03
  1297.000   1.93755109e+03
  1297.500   1.93930238e+03
  1298.000   1.94082986e+03
  1298.500   1.94214499e+03
  1299.000   1.94325976e+03
  1299.500   1.94418665e+03
  1300.000   1.94493852e+03
  1300.500   1.94552863e+03
  1301.000   1.94597055e+03
  1301.500   1.94627807e+03
  1302.000   1.94646522e+03
  1302.500   1.94654616e+03
  1303.000   1.94653515e+03
  1303.500   1.94644652e+03
  1304.000   1.94629458e+03
  1304.500   1.94609361e+03
  1305.000   1.94585782e+03
  1305.500   1.94560129e+03
  1306.000   1.94533795e+03
  1306.500   1.94508153e+03
  1307.000   1.94484558e+03
  1307.500   1.94464335e+03
  1308.000   1.94448787e+03
  1308.500   1.94439186e+03
  1309.000   1.94436774e+03
  1309.500   1.94442760e+03
  1310.000   1.94458319e+03
  1310.500   1.94484594e+03
  1311.000   1.94522689e+03
  1311.500   1.94573674e+03
  1312.000   1.94638583e+03
  1312.500   1.94718412e+03
  1313.000   1.94814122e+03
  1313.500   1.94926636e+03
  1314.000   1.95056842e+03
  1314.500   1.95205592e+03
  1315.000   1.95373702e+03
  1315.500   1.95561955e+03
  1316.000   1.95771099e+03
  1316.500   1.96001848e+03
  1317.000   1.96254888e+03
  1317.500   1.96530868e+03
  1318.000   1.96830412e+03
  1318.500   1.97154111e+03
  1319.000   1.97502528e+03
  1319.500   1.97876202e+03
  1320.000   1.98275641e+03
  1320.500   1.98701331e+03
  1321.000   1.99153733e+03
  1321.500   1.99633282e+03
  1322.000   2.00140395e+03
  1322.500   2.00675464e+03
  1323.000   2.01238861e+03
  1323.500   2.01830939e+03
  1324.000   2.02452033e+03
  1324.500   2.03102456e+03
  1325.000   2.03782508e+03
  1325.500   2.04492469e+03
  1326.000   2.05232605e+03
  1326.500   2.06003165e+03
  1327.000   2.06804385e+03
  1327.500   2.07636484e+03
  1328.000   2.08499671e+03
  1328.500   2.09394138e+03
  1329.000   2.10320067e+03
  1329.500   2.11277626e+03
  1330.000   2.12266972e+03
  1330.500   2.13288250e+03
  1331.000   2.14341593e+03
  1331.500   2.15427127e+03
  1332.000   2.16544963e+03
  1332.500   2.17695205e+03
  1333.000   2.18877947e+03
  1333.500   2.20093272e+03
  1334.000   2.21341258e+03
  1334.500   2.22621972e+03
  1335.000   2.23935473e+03
  1335.500   2.25281815e+03
  1336.000   2.26661043e+03
  1336.500   2.28073198e+03
  1337.000   2.29518314e+03
  1337.500   2.30996421e+03
  1338.000   2.32507545e+03
  1338.500   2.34051709e+03
  1339.000   2.35628935e+03
  1339.500   2.37239242e+03
  1340.000   2.38882651e+03
  1340.500   2.40559183e+03
  1341.000   2.42268861e+03
  1341.500   2.44011713e+03
  1342.000   2.45787772e+03
  1342.500   2.47597077e+03
  1343.000   2.49439676e+03
  1343.500   2.51315627e+03
  1344.000   2.53224999e+03
  1344.500   2.55167874e+03
  1345.000   2.57144351e+03
  1345.500   2.59154544e+03
  1346.000   2.61198587e+03
  1346.500   2.63276634e+03
  1347.000   2.65388863e+03
  1347.500   2.67535475e+03
  1348.000   2.69716698e+03
  1348.500   2.71932786e+03
  1349.000   2.74184027e+03
  1349.500   2.76470735e+03
  1350.000   2.78793262e+03
  1350.500   2.81151989e+03
  1351.000   2.83547337e+03
  1351.500   2.85979760e+03
  1352.000   2.88449750e+03
  1352.500   2.90957839e+03
  1353.000   2.93504594e+03
  1353.500   2.96090624e+03
  1354.000   2.98716575e+03
  1354.500   3.01383133e+03
  1355.000   3.04091020e+03
  1355.500   3.06840998e+03
  1356.000   3.09633864e+03
  1356.500   3.12470452e+03
  1357.000   3.15351629e+03
  1357.500   3.18278296e+03
  1358.000   3.21251384e+03
  1358.500   3.24271852e+03
  1359.000   3.27340687e+03
  1359.500   3.30458900e+03
  1360.000   3.33627522e+03
  1360.500   3.36847604e+03
  1361.000   3.40120213e+03
  1361.500   3.43446427e+03
  1362.000   3.46827335e+03
  1362.500   3.50264031e+03
  1363.000   3.53757611e+03
  1363.500   3.57309171e+03
  1364.000   3.60919802e+03
  1364.500   3.64590585e+03
  1365.000   3.68322592e+03
  1365.500   3.72116876e+03
  1366.000   3.75974470e+03
  1366.500   3.79896386e+03
  1367.000   3.83883606e+03
  1367.500   3.87937081e+03
  1368.000   3.92057725e+03
  1368.500   3.96246414e+03
  1369.000   4.00503981e+03
  1369.500   4.04831210e+03
  1370.000   4.09228834e+03
  1370.500   4.13697530e+03
  1371.000   4.18237917e+03
  1371.500   4.22850548e+03
  1372.000   4.27535910e+03
  1372.500   4.32294418e+03
  1373.000   4.37126410e+03
  1373.500   4.42032146e+03
  1374.000   4.47011799e+03
  1374.500   4.52065456e+03
  1375.000   4.57193110e+03
  1375.500   4.62394655e+03
  1376.000   4.67669886e+03
  1376.500   4.73018488e+03
  1377.000   4.78440039e+03
  1377.500   4.83933998e+03
  1378.000   4.89499703e+03
  1378.500   4.95136367e+03
  1379.000   5.00843071e+03
  1379.500   5.06618759e+03
  1380.000   5.12462234e+03
  1380.500   5.18372150e+03
  1381.000   5.24347007e+03
  1381.500   5.30385145e+03
  1382.000   5.36484739e+03
  1382.500   5.42643792e+03
  1383.000   5.48860127e+03
  1383.500   5.55131382e+03
  1384.000   5.61455002e+03
  1384.500   5.67828236e+03
  1385.000   5.74248125e+03
  1385.500   5.80711499e+03
  1386.000   5.87214967e+03
  1386.500   5.93754915e+03
  1387.000   6.00327494e+03
  1387.500   6.06928619e+03
  1388.000   6.13553959e+03
  1388.500   6.20198933e+03
  1389.000   6.26858707e+03
  1389.500   6.33528185e+03
  1390.000   6.40202009e+03
  1390.500   6.46874556e+03
  1391.000   6.53539935e+03
  1391.500   6.60191984e+03
  1392.000   6.66824275e+03
  1392.500   6.73430113e+03
  1393.000   6.80002539e+03
  1393.500   6.86534335e+03
  1394.000   6.93018032e+03
  1394.500   6.99445917e+03
  1395.000   7.05810044e+03
  1395.500   7.12102245e+03
  1396.000   7.18314148e+03
  1396.500   7.24437189e+03
  1397.000   7.30462636e+03
  1397.500   7.36381607e+03
  1398.000   7.42185097e+03
  1398.500   7.47863999e+03
  1399.000   7.53409139e+03
  1399.500   7.58811302e+03
  1400.000   7.64061263e+03
  1400.500   7.69149829e+03
  1401.000   7.74067866e+03
  1401.500   7.78806346e+03
  1402.000   7.83356377e+03
  1402.500   7.87709252e+03
  1403.000   7.91856483e+03
  1403.500   7.95789848e+03
  1404.000   7.99501428e+03
  1404.500   8.02983652e+03
  1405.000   8.06229336e+03
  1405.500   8.09231724e+03
  1406.000   8.11984522e+03
  1406.500   8.14481943e+03
  1407.000   8.16718733e+03
  1407.500   8.18690209e+03
  1408.000   8.20392283e+03
  1408.500   8.21821494e+03
  1409.000   8.22975025e+03
  1409.500   8.23850724e+03
  1410.000   8.24447121e+03
  1410.500   8.24763434e+03
  1411.000   8.24799580e+03
  1411.500   8.24556175e+03
  1412.000   8.24034532e+03
  1412.500   8.23236657e+03
  1413.000   8.22165232e+03
  1413.500   8.20823608e+03
  1414.000   8.19215783e+03
  1414.500   8.17346377e+03
  1415.000   8.15220610e+03
  1415.500   8.12844269e+03
  1416.000   8.10223680e+03
  1416.500   8.07365671e+03
  1417.000   8.04277533e+03
  1417.500   8.00966986e+03
  1418.000   7.97442134e+03
  1418.500   7.93711427e+03
  1419.000   7.89783616e+03
  1419.500   7.85667712e+03
  1420.000   7.81372946e+03
  1420.500   7.76908720e+03
  1421.000   7.72284572e+03
  1421.500   7.67510130e+03
  1422.000   7.62595079e+03
  1422.500   7.57549114e+03
  1423.000   7.52381912e+03
  1423.500   7.47103090e+03
  1424.000   7.41722179e+03
  1424.500   7.36248587e+03
  1425.000   7.30691574e+03
  1425.500   7.25060224e+03
  1426.000   7.19363422e+03
  1426.500   7.13609829e+03
  1427.000   7.07807868e+03
  1427.500   7.01965700e+03
  1428.000   6.96091213e+03
  1428.500   6.90192006e+03
  1429.000   6.84275380e+03
  1429.500   6.78348327e+03
  1430.000   6.72417524e+03
  1430.500   6.66489326e+03
  1431.000   6.60569761e+03
  1431.500   6.54664532e+03
  1432.000   6.48779011e+03
  1432.500   6.42918239e+03
  1433.000   6.37086933e+03
  1433.500   6.31289482e+03
  1434.000   6.25529955e+03
  1434.500   6.19812103e+03
  1435.000   6.14139366e+03
  1435.500   6.08514876e+03
  1436.000   6.02941468e+03
  1436.500   5.97421682e+03
  1437.000   5.91957776e+03
  1437.500   5.86551729e+03
  1438.000   5.81205255e+03
  1438.500   5.75919806e+03
  1439.000   5.70696584e+03
  1439.500   5.65536554e+03
  1440.000   5.60440444e+03
  1440.500   5.55408765e+03
  1441.000   5.50441816e+03
  1441.500   5.45539693e+03
  1442.000   5.40702303e+03
  1442.500   5.35929370e+03
  1443.000   5.31220449e+03
  1443.500   5.26574936e+03
  1444.000   5.21992076e+03
  1444.500   5.17470978e+03
  1445.000   5.13010620e+03
  1445.500   5.08609867e+03
  1446.000   5.04267474e+03
  1446.500   4.99982104e+03
  1447.000   4.95752334e+03
  1447.500   4.91576668e+03
  1448.000   4.87453546e+03
  1448.500   4.83381357e+03
  1449.000   4.79358450e+03
  1449.500   4.75383140e+03
  1450.000   4.71453722e+03
  1450.500   4.67568484e+03
  1451.000   4.63725708e+03
  1451.500   4.59923689e+03
  1452.000   4.56160740e+03
  1452.500   4.52435198e+03
  1453.000   4.48745440e+03
  1453.500   4.45089883e+03
  1454.000   4.41466999e+03
  1454.500   4.37875316e+03
  1455.000   4.34313428e+03
  1455.500   4.30780000e+03
  1456.000   4.27273772e+03
  1456.500   4.23793565e+03
  1457.000   4.20338286e+03
  1457.500   4.16906929e+03
  1458.000   4.13498579e+03
  1458.500   4.10112410e+03
  1459.000   4.06747694e+03
  1459.500   4.03403793e+03
  1460.000   4.00080166e+03
  1460.500   3.96776360e+03
  1461.000   3.93492018e+03
  1461.500   3.90226868e+03
  1462.000   3.86980727e+03
  1462.500   3.83753493e+03
  1463.000   3.80545145e+03
  1463.500   3.77355736e+03
  1464.000   3.74185393e+03
  1464.500   3.71034306e+03
  1465.000   3.67902728e+03
  1465.500   3.64790968e+03
  1466.000   3.61699387e+03
  1466.500   3.58628389e+03
  1467.000   3.55578422e+03
  1467.500   3.52549967e+03
  1468.000   3.49543533e+03
  1468.500   3.46559655e+03
  1469.000   3.43598888e+03
  1469.500   3.40661801e+03
  1470.000   3.37748970e+03
  1470.500   3.34860980e+03
  1471.000   3.31998414e+03
  1471.500   3.29161853e+03
  1472.000   3.26351871e+03
  1472.500   3.23569032e+03
  1473.000   3.20813888e+03
  1473.500   3.18086971e+03
  1474.000   3.15388800e+03
  1474.500   3.12719868e+03
  1475.000   3.10080649e+03
  1475.500   3.07471591e+03
  1476.000   3.04893116e+03
  1476.500   3.02345621e+03
  1477.000   2.99829475e+03
  1477.500   2.97345018e+03
  1478.000   2.94892561e+03
  1478.500   2.92472390e+03
  1479.000   2.90084758e+03
  1479.500   2.87729892e+03
  1480.000   2.85407991e+03
  1480.500   2.83119227e+03
  1481.000   2.80863743e+03
  1481.500   2.78641659e+03
  1482.000   2.76453066e+03
  1482.500   2.74298036e+03
  1483.000   2.72176613e+03
  1483.500   2.70088821e+03
  1484.000   2.68034662e+03
  1484.500   2.66014120e+03
  1485.000   2.64027158e+03
  1485.500   2.62073723e+03
  1486.000   2.60153744e+03
  1486.500   2.58267136e+03
  1487.000   2.56413800e+03
  1487.500   2.54593623e+03
  1488.000   2.52806479e+03
  1488.500   2.51052235e+03
  1489.000   2.49330744e+03
  1489.500   2.47641853e+03
  1490.000   2.45985399e+03
  1490.500   2.44361213e+03
  1491.000   2.42769120e+03
  1491.500   2.41208939e+03
  1492.000   2.39680484e+03
  1492.500   2.38183566e+03
  1493.000   2.36717991e+03
  1493.500   2.35283563e+03
  1494.000   2.33880086e+03
  1494.500   2.32507357e+03
  1495.000   2.31165178e+03
  1495.500   2.29853344e+03
  1496.000   2.28571653e+03
  1496.500   2.27319903e+03
  1497.000   2.26097889e+03
  1497.500   2.24905410e+03
  1498.000   2.23742262e+03
  1498.500   2.22608243e+03
  1499.000   2.21503152e+03
  1499.500   2.20426790e+03
  1500.000   2.19378956e+03
  1500.500   2.18359452e+03
  1501.000   2.17368081e+03
  1501.500   2.16404647e+03
  1502.000   2.15468954e+03
  1502.500   2.14560809e+03
  1503.000   2.13680018e+03
  1503.500   2.12826390e+03
  1504.000   2.11999733e+03
  1504.500   2.11199856e+03
  1505.000   2.10426572e+03
  1505.500   2.09679690e+03
  1506.000   2.08959024e+03
  1506.500   2.08264384e+03
  1507.000   2.07595585e+03
  1507.500   2.06952439e+03
  1508.000   2.06334758e+03
  1508.500   2.05742358e+03
  1509.000   2.05175049e+03
  1509.500   2.04632646e+03
  1510.000   2.04114960e+03
  1510.500   2.03621803e+03
  1511.000   2.03152987e+03
  1511.500   2.02708321e+03
  1512.000   2.02287615e+03
  1512.500   2.01890678e+03
  1513.000   2.01517315e+03
  1513.500   2.01167334e+03
  1514.000   2.00840537e+03
  1514.500   2.00536729e+03
  1515.000   2.00255711e+03
  1515.500   1.99997282e+03
  1516.000   1.99761241e+03
  1516.500   1.99547383e+03
  1517.000   1.99355505e+03
  1517.500   1.99185399e+03
  1518.000   1.99036857e+03
  1518.500   1.98909671e+03
  1519.000   1.98803628e+03
  1519.500   1.98718517e+03
  1520.000   1.98654126e+03
  1520.500   1.98610241e+03
  1521.000   1.98586648e+03
  1521.500   1.98583133e+03
  1522.000   1.98599482e+03
  1522.500   1.98635482e+03
  1523.000   1.98690922e+03
  1523.500   1.98765589e+03
  1524.000   1.98859275e+03
  1524.500   1.98971775e+03
  1525.000   1.99102883e+03
  1525.500   1.99252399e+03
  1526.000   1.99420128e+03
  1526.500   1.99605876e+03
  1527.000   1.99809458e+03
  1527.500   2.00030692e+03
  1528.000   2.00269401e+03
  1528.500   2.00525419e+03
  1529.000   2.00798582e+03
  1529.500   2.01088736e+03
  1530.000   2.01395736e+03
  1530.500   2.01719443e+03
  1531.000   2.02059727e+03
  1531.500   2.02416468e+03
  1532.000   2.02789553e+03
  1532.500   2.03178879e+03
  1533.000   2.03584352e+03
  1533.500   2.04005887e+03
  1534.000   2.04443405e+03
  1534.500   2.04896838e+03
  1535.000   2.05366125e+03
  1535.500   2.05851209e+03
  1536.000   2.06352042e+03
  1536.500   2.06868581e+03
  1537.000   2.07400786e+03
  1537.500   2.07948621e+03
  1538.000   2.08512051e+03
  1538.500   2.09091043e+03
  1539.000   2.09685560e+03
  1539.500   2.10295564e+03
  1540.000   2.10921013e+03
  1540.500   2.11561857e+03
  1541.000   2.12218038e+03
  1541.500   2.12889488e+03
  1542.000   2.13576127e+03
  1542.500   2.14277858e+03
  1543.000   2.14994570e+03
  1543.500   2.15726130e+03
  1544.000   2.16472384e+03
  1544.500   2.17233156e+03
  1545.000   2.18008241e+03
  1545.500   2.18797408e+03
  1546.000   2.19600394e+03
  1546.500   2.20416903e+03
  1547.000   2.21246604e+03
  1547.500   2.22089129e+03
  1548.000   2.22944070e+03
  1548.500   2.23810979e+03
  1549.000   2.24689366e+03
  1549.500   2.25578694e+03
  1550.000   2.26478383e+03
  1550.500   2.27387805e+03
  1551.000   2.28306284e+03
  1551.500   2.29233095e+03
  1552.000   2.30167466e+03
  1552.500   2.31108573e+03
  1553.000   2.32055543e+03
  1553.500   2.33007456e+03
  1554.000   2.33963340e+03
  1554.500   2.34922179e+03
  1555.000   2.35882908e+03
  1555.500   2.36844419e+03
  1556.000   2.37805561e+03
  1556.500   2.38765141e+03
  1557.000   2.39721933e+03
  1557.500   2.40674671e+03
  1558.000   2.41622063e+03
  1558.500   2.42562786e+03
  1559.000   2.43495499e+03
  1559.500   2.44418839e+03
  1560.000   2.45331431e+03
  1560.500   2.46231894e+03
  1561.000   2.47118843e+03
  1561.500   2.47990899e+03
  1562.000   2.48846690e+03
  1562.500   2.49684864e+03
  1563.000   2.50504089e+03
  1563.500   2.51303065e+03
  1564.000   2.52080527e+03
  1564.500   2.52835252e+03
  1565.000   2.53566071e+03
  1565.500   2.54271867e+03
  1566.000   2.54951588e+03
  1566.500   2.55604253e+03
  1567.000   2.56228953e+03
  1567.500   2.56824863e+03
  1568.000   2.57391243e+03
  1568.500   2.57927445e+03
  1569.000   2.58432916e+03
  1569.500   2.58907205e+03
  1570.000   2.59349960e+03
  1570.500   2.59760940e+03
  1571.000   2.60140006e+03
  1571.500   2.60487134e+03
  1572.000   2.60802407e+03
  1572.500   2.61086019e+03
  1573.000   2.61338273e+03
  1573.500   2.61559581e+03
  1574.000   2.61750463e+03
  1574.500   2.61911541e+03
  1575.000   2.62043540e+03
  1575.500   2.62147281e+03
  1576.000   2.62223679e+03
  1576.500   2.62273738e+03
  1577.000   2.62298545e+03
  1577.500   2.62299266e+03
  1578.000   2.62277139e+03
  1578.500   2.62233469e+03
  1579.000   2.62169621e+03
  1579.500   2.62087015e+03
  1580.000   2.61987118e+03
  1580.500   2.61871439e+03
  1581.000   2.61741523e+03
  1581.500   2.61598941e+03
  1582.000   2.61445289e+03
  1582.500   2.61282180e+03
  1583.000   2.61111236e+03
  1583.500   2.60934086e+03
  1584.000   2.60752358e+03
  1584.500   2.60567676e+03
  1585.000   2.60381654e+03
  1585.500   2.60195892e+03
  1586.000   2.60011973e+03
  1586.500   2.59831457e+03
  1587.000   2.59655879e+03
  1587.500   2.59486750e+03
  1588.000   2.59325545e+03
  1588.500   2.59173711e+03
  1589.000   2.59032659e+03
  1589.500   2.58903762e+03
  1590.000   2.58788358e+03
  1590.500   2.58687745e+03
  1591.000   2.58603184e+03
  1591.500   2.58535894e+03
  1592.000   2.58487056e+03
  1592.500   2.58457809e+03
  1593.000   2.58449255e+03
  1593.500   2.58462455e+03
  1594.000   2.58498432e+03
  1594.500   2.58558171e+03
  1595.000   2.58642621e+03
  1595.500   2.58752694e+03
  1596.000   2.58889267e+03
  1596.500   2.59053183e+03
  1597.000   2.59245255e+03
  1597.500   2.59466262e+03
  1598.000   2.59716956e+03
  1598.500   2.59998058e+03
  1599.000   2.60310264e+03
  1599.500   2.60654245e+03
  1600.000   2.61030647e+03
  1600.500   2.61440095e+03
  1601.000   2.61883192e+03
  1601.500   2.62360524e+03
  1602.000   2.62872656e+03
  1602.500   2.63420139e+03
  1603.000   2.64003508e+03
  1603.500   2.64623286e+03
  1604.000   2.65279982e+03
  1604.500   2.65974096e+03
  1605.000   2.66706117e+03
  1605.500   2.67476527e+03
  1606.000   2.68285801e+03
  1606.500   2.69134407e+03
  1607.000   2.70022811e+03
  1607.500   2.70951472e+03
  1608.000   2.71920851e+03
  1608.500   2.72931403e+03
  1609.000   2.73983586e+03
  1609.500   2.75077858e+03
  1610.000   2.76214677e+03
  1610.500   2.77394505e+03
  1611.000   2.78617807e+03
  1611.500   2.79885051e+03
  1612.000   2.81196712e+03
  1612.500   2.82553267e+03
  1613.000   2.83955203e+03
  1613.500   2.85403012e+03
  1614.000   2.86897192e+03
  1614.500   2.88438253e+03
  1615.000   2.90026709e+03
  1615.500   2.91663087e+03
  1616.000   2.93347921e+03
  1616.500   2.95081756e+03
  1617.000   2.96865148e+03
  1617.500   2.98698663e+03
  1618.000   3.00582879e+03
  1618.500   3.02518383e+03
  1619.000   3.04505778e+03
  1619.500   3.06545676e+03
  1620.000   3.08638702e+03
  1620.500   3.10785494e+03
  1621.000   3.12986702e+03
  1621.500   3.15242990e+03
  1622.000   3.17555032e+03
  1622.500   3.19923518e+03
  1623.000   3.22349149e+03
  1623.500   3.24832641e+03
  1624.000   3.27374722e+03
  1624.500   3.29976130e+03
  1625.000   3.32637621e+03
  1625.500   3.35359959e+03
  1626.000   3.38143923e+03
  1626.500   3.40990302e+03
  1627.000   3.43899899e+03
  1627.500   3.46873528e+03
  1628.000   3.49912012e+03
  1628.500   3.53016187e+03
  1629.000   3.56186899e+03
  1629.500   3.59425002e+03
  1630.000   3.62731361e+03
  1630.500   3.66106848e+03
  1631.000   3.69552343e+03
  1631.500   3.73068735e+03
  1632.000   3.76656915e+03
  1632.500   3.80317784e+03
  1633.000   3.84052243e+03
  1633.500   3.87861200e+03
  1634.000   3.91745564e+03
  1634.500   3.95706244e+03
  1635.000   3.99744150e+03
  1635.500   4.03860191e+03
  1636.000   4.08055273e+03
  1636.500   4.12330298e+03
  1637.000   4.16686162e+03
  1637.500   4.21123756e+03
  1638.000   4.25643960e+03
  1638.500   4.30247645e+03
  1639.000   4.34935671e+03
  1639.500   4.39708883e+03
  1640.000   4.44568110e+03
  1640.500   4.49514166e+03
  1641.000   4.54547844e+03
  1641.500   4.59669916e+03
  1642.000   4.64881132e+03
  1642.500   4.70182216e+03
  1643.000   4.75573865e+03
  1643.500   4.81056747e+03
  1644.000   4.86631499e+03
  1644.500   4.92298724e+03
  1645.000   4.98058991e+03
  1645.500   5.03912831e+03
  1646.000   5.09860735e+03
  1646.500   5.15903155e+03
  1647.000   5.22040497e+03
  1647.500   5.28273123e+03
  1648.000   5.34601350e+03
  1648.500   5.41025444e+03
  1649.000   5.47545620e+03
  1649.500   5.54162044e+03
  1650.000   5.60874825e+03
  1650.500   5.67684017e+03
  1651.000   5.74589620e+03
  1651.500   5.81591573e+03
  1652.000   5.88689754e+03
  1652.500   5.95883984e+03
  1653.000   6.03174017e+03
  1653.500   6.10559546e+03
  1654.000   6.18040195e+03
  1654.500   6.25615524e+03
  1655.000   6.33285022e+03
  1655.500   6.41048108e+03
  1656.000   6.48904128e+03
  1656.500   6.56852353e+03
  1657.000   6.64891977e+03
  1657.500   6.73022113e+03
  1658.000   6.81241791e+03
  1658.500   6.89549954e+03
  1659.000   6.97945455e+03
  1659.500   7.06427050e+03
  1660.000   7.14993395e+03
  1660.500   7.23643040e+03
  1661.000   7.32374423e+03
  1661.500   7.41185862e+03
  1662.000   7.50075546e+03
  1662.500   7.59041531e+03
  1663.000   7.68081726e+03
  1663.500   7.77193885e+03
  1664.000   7.86375596e+03
  1664.500   7.95624268e+03
  1665.000   8.04937121e+03
  1665.500   8.14311171e+03
  1666.000   8.23743218e+03
  1666.500   8.33229827e+03
  1667.000   8.42767320e+03
  1667.500   8.52351753e+03
  1668.000   8.61978907e+03
  1668.500   8.71644266e+03
  1669.000   8.81343007e+03
  1669.500   8.91069979e+03
  1670.000   9.00819688e+03
  1670.500   9.10586285e+03
  1671.000   9.20363547e+03
  1671.500   9.30144867e+03
  1672.000   9.39923237e+03
  1672.500   9.49691242e+03
  1673.000   9.59441043e+03
  1673.500   9.69164376e+03
  1674.000   9.78852538e+03
  1674.500   9.88496392e+03
  1675.000   9.98086355e+03
  1675.500   1.00761241e+04
  1676.000   1.01706409e+04
  1676.500   1.02643053e+04
  1677.000   1.03570041e+04
  1677.500   1.04486203e+04
  1678.000   1.05390329e+04
  1678.500   1.06281173e+04
  1679.000   1.07157454e+04
  1679.500   1.08017862e+04
  1680.000   1.08861056e+04
  1680.500   1.09685672e+04
  1681.000   1.10490327e+04
  1681.500   1.11273622e+04
  1682.000   1.12034144e+04
  1682.500   1.12770477e+04
  1683.000   1.13481205e+04
  1683.500   1.14164916e+04
  1684.000   1.14820210e+04
  1684.500   1.15445705e+04
  1685.000   1.16040042e+04
  1685.500   1.16601894e+04
  1686.000   1.17129971e+04
  1686.500   1.17623026e+04
  1687.000   1.18079865e+04
  1687.500   1.18499348e+04
  1688.000   1.18880401e+04
  1688.500   1.19222019e+04
  1689.000   1.19523272e+04
  1689.500   1.19783313e+04
  1690.000   1.20001379e+04
  1690.500   1.20176801e+04
  1691.000   1.20309002e+04
  1691.500   1.20397508e+04
  1692.000   1.20441944e+04
  1692.500   1.20442042e+04
  1693.000   1.20397640e+04
  1693.500   1.20308683e+04
  1694.000   1.20175226e+04
  1694.500   1.19997431e+04
  1695.000   1.19775569e+04
  1695.500   1.19510016e+04
  1696.000   1.19201252e+04
  1696.500   1.18849858e+04
  1697.000   1.18456513e+04
  1697.500   1.18021991e+04
  1698.000   1.17547154e+04
  1698.500   1.17032949e+04
  1699.000   1.16480404e+04
  1699.500   1.15890618e+04
  1700.000   1.15264760e+04
  1700.500   1.14604060e+04
  1701.000   1.13909803e+04
  1701.500   1.13183324e+04
  1702.000   1.12426000e+04
  1702.500   1.11639242e+04
  1703.000   1.10824493e+04
  1703.500   1.09983217e+04
  1704.000   1.09116896e+04
  1704.500   1.08227022e+04
  1705.000   1.07315092e+04
  1705.500   1.06382602e+04
  1706.000   1.05431041e+04
  1706.500   1.04461889e+04
  1707.000   1.03476607e+04
  1707.500   1.02476639e+04
  1708.000   1.01463402e+04
  1708.500   1.00438286e+04
  1709.000   9.94026505e+03
  1709.500   9.83578201e+03
  1710.000   9.73050825e+03
  1710.500   9.62456863e+03
  1711.000   9.51808394e+03
  1711.500   9.41117067e+03
  1712.000   9.30394093e+03
  1712.500   9.19650235e+03
  1713.000   9.08895796e+03
  1713.500   8.98140620e+03
  1714.000   8.87394087e+03
  1714.500   8.76665111e+03
  1715.000   8.65962146e+03
  1715.500   8.55293187e+03
  1716.000   8.44665775e+03
  1716.500   8.34087006e+03
  1717.000   8.23563540e+03
  1717.500   8.13101604e+03
  1718.000   8.02707013e+03
  1718.500   7.92385173e+03
  1719.000   7.82141094e+03
  1719.500   7.71979408e+03
  1720.000   7.61904377e+03
  1720.500   7.51919907e+03
  1721.000   7.42029564e+03
  1721.500   7.32236588e+03
  1722.000   7.22543903e+03
  1722.500   7.12954137e+03
  1723.000   7.03469630e+03
  1723.500   6.94092453e+03
  1724.000   6.84824419e+03
  1724.500   6.75667095e+03
  1725.000   6.66621819e+03
  1725.500   6.57689709e+03
  1726.000   6.48871679e+03
  1726.500   6.40168448e+03
  1727.000   6.31580555e+03
  1727.500   6.23108366e+03
  1728.000   6.14752091e+03
  1728.500   6.06511787e+03
  1729.000   5.98387376e+03
  1729.500   5.90378650e+03
  1730.000   5.82485279e+03
  1730.500   5.74706826e+03
  1731.000   5.67042748e+03
  1731.500   5.59492411e+03
  1732.000   5.52055091e+03
  1732.500   5.44729988e+03
  1733.000   5.37516227e+03
  1733.500   5.30412867e+03
  1734.000   5.23418910e+03
  1734.500   5.16533301e+03
  1735.000   5.09754937e+03
  1735.500   5.03082673e+03
  1736.000   4.96515322e+03
  1736.500   4.90051668e+03
  1737.000   4.83690460e+03
  1737.500   4.77430424e+03
  1738.000   4.71270262e+03
  1738.500   4.65208660e+03
  1739.000   4.59244285e+03
  1739.500   4.53375793e+03
  1740.000   4.47601830e+03
  1740.500   4.41921036e+03
  1741.000   4.36332042e+03
  1741.500   4.30833481e+03
  1742.000   4.25423983e+03
  1742.500   4.20102180e+03
  1743.000   4.14866704e+03
  1743.500   4.09716196e+03
  1744.000   4.04649300e+03
  1744.500   3.99664667e+03
  1745.000   3.94760958e+03
  1745.500   3.89936842e+03
  1746.000   3.85191000e+03
  1746.500   3.80522124e+03
  1747.000   3.75928916e+03
  1747.500   3.71410093e+03
  1748.000   3.66964386e+03
  1748.500   3.62590539e+03
  1749.000   3.58287310e+03
  1749.500   3.54053475e+03
  1750.000   3.49887821e+03
  1750.500   3.45789155e+03
  1751.000   3.41756297e+03
  1751.500   3.37788086e+03
  1752.000   3.33883376e+03
  1752.500   3.30041037e+03
  1753.000   3.26259958e+03
  1753.500   3.22539042e+03
  1754.000   3.18877212e+03
  1754.500   3.15273406e+03
  1755.000   3.11726580e+03
  1755.500   3.08235706e+03
  1756.000   3.04799774e+03
  1756.500   3.01417790e+03
  1757.000   2.98088778e+03
  1757.500   2.94811777e+03
  1758.000   2.91585845e+03
  1758.500   2.88410053e+03
  1759.000   2.85283492e+03
  1759.500   2.82205267e+03
  1760.000   2.79174499e+03
  1760.500   2.76190327e+03
  1761.000   2.73251904e+03
  1761.500   2.70358397e+03
  1762.000   2.67508991e+03
  1762.500   2.64702886e+03
  1763.000   2.61939295e+03
  1763.500   2.59217447e+03
  1764.000   2.56536586e+03
  1764.500   2.53895969e+03
  1765.000   2.51294867e+03
  1765.500   2.48732568e+03
  1766.000   2.46208368e+03
  1766.500   2.43721583e+03
  1767.000   2.41271536e+03
  1767.500   2.38857568e+03
  1768.000   2.36479030e+03
  1768.500   2.34135287e+03
  1769.000   2.31825714e+03
  1769.500   2.29549701e+03
  1770.000   2.27306649e+03
  1770.500   2.25095970e+03
  1771.000   2.22917087e+03
  1771.500   2.20769437e+03
  1772.000   2.18652465e+03
  1772.500   2.16565628e+03
  1773.000   2.14508395e+03
  1773.500   2.12480243e+03
  1774.000   2.10480661e+03
  1774.500   2.08509148e+03
  1775.000   2.06565212e+03
  1775.500   2.04648371e+03
  1776.000   2.02758152e+03
  1776.500   2.00894094e+03
  1777.000   1.99055741e+03
  1777.500   1.97242648e+03
  1778.000   1.95454380e+03
  1778.500   1.93690508e+03
  1779.000   1.91950613e+03
  1779.500   1.90234284e+03
  1780.000   1.88541118e+03
  1780.500   1.86870720e+03
  1781.000   1.85222702e+03
  1781.500   1.83596685e+03
  1782.000   1.81992295e+03
  1782.500   1.80409169e+03
  1783.000   1.78846947e+03
  1783.500   1.77305279e+03
  1784.000   1.75783820e+03
  1784.500   1.74282234e+03
  1785.000   1.72800188e+03
  1785.500   1.71337359e+03
  1786.000   1.69893428e+03
  1786.500   1.68468083e+03
  1787.000   1.67061017e+03
  1787.500   1.65671931e+03
  1788.000   1.64300530e+03
  1788.500   1.62946524e+03
  1789.000   1.61609632e+03
  1789.500   1.60289575e+03
  1790.000   1.58986080e+03
  1790.500   1.57698879e+03
  1791.000   1.56427712e+03
  1791.500   1.55172319e+03
  1792.000   1.53932450e+03
  1792.500   1.52707855e+03
  1793.000   1.51498292e+03
  1793.500   1.50303523e+03
  1794.000   1.49123314e+03
  1794.500   1.47957434e+03
  1795.000   1.46805660e+03
  1795.500   1.45667769e+03
  1796.000   1.44543544e+03
  1796.500   1.43432774e+03
  1797.000   1.42335248e+03
  1797.500   1.41250761e+03
  1798.000   1.40179113e+03
  1798.500   1.39120105e+03
  1799.000   1.38073544e+03
  1799.500   1.37039239e+03
  1800.000   1.36017004e+03
  1800.500   1.35006653e+03
  1801.000   1.34008009e+03
  1801.500   1.33020892e+03
  1802.000   1.32045131e+03
  1802.500   1.31080553e+03
  1803.000   1.30126992e+03
  1803.500   1.29184284e+03
  1804.000   1.28252265e+03
  1804.500   1.27330779e+03
  1805.000   1.26419668e+03
  1805.500   1.25518781e+03
  1806.000   1.24627966e+03
  1806.500   1.23747076e+03
  1807.000   1.22875965e+03
  1807.500   1.22014492e+03
  1808.000   1.21162517e+03
  1808.500   1.20319901e+03
  1809.000   1.19486509e+03
  1809.500   1.18662210e+03
  1810.000   1.17846872e+03
  1810.500   1.17040367e+03
  1811.000   1.16242569e+03
  1811.500   1.15453354e+03
  1812.000   1.14672601e+03
  1812.500   1.13900190e+03
  1813.000   1.13136003e+03
  1813.500   1.12379925e+03
  1814.000   1.11631843e+03
  1814.500   1.10891644e+03
  1815.000   1.10159219e+03
  1815.500   1.09434461e+03
  1816.000   1.08717262e+03
  1816.500   1.08007519e+03
  1817.000   1.07305129e+03
  1817.500   1.06609992e+03
  1818.000   1.05922008e+03
  1818.500   1.05241079e+03
  1819.000   1.04567111e+03
  1819.500   1.03900008e+03
  1820.000   1.03239678e+03
  1820.500   1.02586029e+03
  1821.000   1.01938973e+03
  1821.500   1.01298420e+03
  1822.000   1.00664284e+03
  1822.500   1.00036480e+03
  1823.000   9.94149230e+02
  1823.500   9.87995312e+02
  1824.000   9.81902232e+02
  1824.500   9.75869188e+02
  1825.000   9.69895394e+02
  1825.500   9.63980076e+02
  1826.000   9.58122471e+02
  1826.500   9.52321831e+02
  1827.000   9.46577417e+02
  1827.500   9.40888503e+02
  1828.000   9.35254374e+02
  1828.500   9.29674327e+02
  1829.000   9.24147671e+02
  1829.500   9.18673722e+02
  1830.000   9.13251811e+02
  1830.500   9.07881278e+02
  1831.000   9.02561472e+02
  1831.500   8.97291754e+02
  1832.000   8.92071493e+02
  1832.500   8.86900069e+02
  1833.000   8.81776872e+02
  1833.500   8.76701300e+02
  1834.000   8.71672762e+02
  1834.500   8.66690674e+02
  1835.000   8.61754462e+02
  1835.500   8.56863561e+02
  1836.000   8.52017414e+02
  1836.500   8.47215472e+02
  1837.000   8.42457196e+02
  1837.500   8.37742053e+02
  1838.000   8.33069519e+02
  1838.500   8.28439079e+02
  1839.000   8.23850224e+02
  1839.500   8.19302452e+02
  1840.000   8.14795271e+02
  1840.500   8.10328195e+02
  1841.000   8.05900743e+02
  1841.500   8.01512446e+02
  1842.000   7.97162836e+02
  1842.500   7.92851458e+02
  1843.000   7.88577858e+02
  1843.500   7.84341592e+02
  1844.000   7.80142222e+02
  1844.500   7.75979316e+02
  1845.000   7.71852448e+02
  1845.500   7.67761198e+02
  1846.000   7.63705153e+02
  1846.500   7.59683904e+02
  1847.000   7.55697052e+02
  1847.500   7.51744198e+02
  1848.000   7.47824953e+02
  1848.500   7.43938932e+02
  1849.000   7.40085756e+02
  1849.500   7.36265050e+02
  1850.000   7.32476446e+02
  1850.500   7.28719579e+02
  1851.000   7.24994093e+02
  1851.500   7.21299632e+02
  1852.000   7.17635849e+02
  1852.500   7.14002400e+02
  1853.000   7.10398946e+02
  1853.500   7.06825153e+02
  1854.000   7.03280691e+02
  1854.500   6.99765235e+02
  1855.000   6.96278464e+02
  1855.500   6.92820063e+02
  1856.000   6.89389719e+02
  1856.500   6.85987126e+02
  1857.000   6.82611978e+02
  1857.500   6.79263978e+02
  1858.000   6.75942830e+02
  1858.500   6.72648242e+02
  1859.000   6.69379927e+02
  1859.500   6.66137603e+02
  1860.000   6.62920988e+02
  1860.500   6.59729808e+02
  1861.000   6.56563790e+02
  1861.500   6.53422665e+02
  1862.000   6.50306168e+02
  1862.500   6.47214038e+02
  1863.000   6.44146017e+02
  1863.500   6.41101850e+02
  1864.000   6.38081285e+02
  1864.500   6.35084075e+02
  1865.000   6.32109974e+02
  1865.500   6.29158742e+02
  1866.000   6.26230139e+02
  1866.500   6.23323931e+02
  1867.000   6.20439884e+02
  1867.500   6.17577771e+02
  1868.000   6.14737363e+02
  1868.500   6.11918439e+02
  1869.000   6.09120776e+02
  1869.500   6.06344158e+02
  1870.000   6.03588370e+02
  1870.500   6.00853199e+02
  1871.000   5.98138435e+02
  1871.500   5.95443873e+02
  1872.000   5.92769307e+02
  1872.500   5.90114536e+02
  1873.000   5.87479360e+02
  1873.500   5.84863584e+02
  1874.000   5.82267012e+02
  1874.500   5.79689454e+02
  1875.000   5.77130719e+02
  1875.500   5.74590620e+02
  1876.000   5.72068974e+02
  1876.500   5.69565597e+02
  1877.000   5.67080310e+02
  1877.500   5.64612934e+02
  1878.000   5.62163294e+02
  1878.500   5.59731215e+02
  1879.000   5.57316527e+02
  1879.500   5.54919061e+02
  1880.000   5.52538648e+02
  1880.500   5.50175124e+02
  1881.000   5.47828325e+02
  1881.500   5.45498089e+02
  1882.000   5.43184259e+02
  1882.500   5.40886675e+02
  1883.000   5.38605183e+02
  1883.500   5.36339629e+02
  1884.000   5.34089861e+02
  1884.500   5.31855729e+02
  1885.000   5.29637084e+02
  1885.500   5.27433780e+02
  1886.000   5.25245673e+02
  1886.500   5.23072619e+02
  1887.000   5.20914477e+02
  1887.500   5.18771107e+02
  1888.000   5.16642371e+02
  1888.500   5.14528133e+02
  1889.000   5.12428257e+02
  1889.500   5.10342611e+02
  1890.000   5.08271063e+02
  1890.500   5.06213482e+02
  1891.000   5.04169739e+02
  1891.500   5.02139709e+02
  1892.000   5.00123264e+02
  1892.500   4.98120281e+02
  1893.000   4.96130636e+02
  1893.500   4.94154209e+02
  1894.000   4.92190878e+02
  1894.500   4.90240526e+02
  1895.000   4.88303034e+02
  1895.500   4.86378288e+02
  1896.000   4.84466171e+02
  1896.500   4.82566572e+02
  1897.000   4.80679376e+02
  1897.500   4.78804475e+02
  1898.000   4.76941757e+02
  1898.500   4.75091115e+02
  1899.000   4.73252442e+02
  1899.500   4.71425631e+02
  1900.000   4.69610577e+02
  1900.500   4.67807177e+02
  1901.000   4.66015328e+02
  1901.500   4.64234930e+02
  1902.000   4.62465880e+02
  1902.500   4.60708082e+02
  1903.000   4.58961435e+02
  1903.500   4.57225844e+02
  1904.000   4.55501213e+02
  1904.500   4.53787446e+02
  1905.000   4.52084449e+02
  1905.500   4.50392130e+02
  1906.000   4.48710398e+02
  1906.500   4.47039160e+02
  1907.000   4.45378327e+02
  1907.500   4.43727811e+02
  1908.000   4.42087523e+02
  1908.500   4.40457376e+02
  1909.000   4.38837285e+02
  1909.500   4.37227164e+02
  1910.000   4.35626928e+02
  1910.500   4.34036495e+02
  1911.000   4.32455782e+02
  1911.500   4.30884708e+02
  1912.000   4.29323191e+02
  1912.500   4.27771151e+02
  1913.000   4.26228511e+02
  1913.500   4.24695191e+02
  1914.000   4.23171114e+02
  1914.500   4.21656204e+02
  1915.000   4.20150385e+02
  1915.500   4.18653581e+02
  1916.000   4.17165719e+02
  1916.500   4.15686725e+02
  1917.000   4.14216526e+02
  1917.500   4.12755051e+02
  1918.000   4.11302228e+02
  1918.500   4.09857986e+02
  1919.000   4.08422257e+02
  1919.500   4.06994971e+02
  1920.000   4.05576060e+02
  1920.500   4.04165455e+02
  1921.000   4.02763091e+02
  1921.500   4.01368900e+02
  1922.000   3.99982818e+02
  1922.500   3.98604779e+02
  1923.000   3.97234719e+02
  1923.500   3.95872575e+02
  1924.000   3.94518283e+02
  1924.500   3.93171781e+02
  1925.000   3.91833008e+02
  1925.500   3.90501901e+02
  1926.000   3.89178402e+02
  1926.500   3.87862449e+02
  1927.000   3.86553984e+02
  1927.500   3.85252948e+02
  1928.000   3.83959283e+02
  1928.500   3.82672931e+02
  1929.000   3.81393835e+02
  1929.500   3.80121938e+02
  1930.000   3.78857186e+02
  1930.500   3.77599522e+02
  1931.000   3.76348892e+02
  1931.500   3.75105241e+02
  1932.000   3.73868516e+02
  1932.500   3.72638664e+02
  1933.000   3.71415631e+02
  1933.500   3.70199366e+02
  1934.000   3.68989817e+02
  1934.500   3.67786933e+02
  1935.000   3.66590663e+02
  1935.500   3.65400957e+02
  1936.000   3.64217765e+02
  1936.500   3.63041039e+02
  1937.000   3.61870728e+02
  1937.500   3.60706785e+02
  1938.000   3.59549163e+02
  1938.500   3.58397813e+02
  1939.000   3.57252689e+02
  1939.500   3.56113744e+02
  1940.000   3.54980932e+02
  1940.500   3.53854207e+02
  1941.000   3.52733525e+02
  1941.500   3.51618841e+02
  1942.000   3.50510110e+02
  1942.500   3.49407288e+02
  1943.000   3.48310332e+02
  1943.500   3.47219198e+02
  1944.000   3.46133845e+02
  1944.500   3.45054229e+02
  1945.000   3.43980308e+02
  1945.500   3.42912042e+02
  1946.000   3.41849388e+02
  1946.500   3.40792307e+02
  1947.000   3.39740758e+02
  1947.500   3.38694700e+02
  1948.000   3.37654094e+02
  1948.500   3.36618901e+02
  1949.000   3.35589082e+02
  1949.500   3.34564598e+02
  1950.000   3.33545411e+02
  1950.500   3.32531483e+02
  1951.000   3.31522776e+02
  1951.500   3.30519254e+02
  1952.000   3.29520879e+02
  1952.500   3.28527614e+02
  1953.000   3.27539425e+02
  1953.500   3.26556274e+02
  1954.000   3.25578126e+02
  1954.500   3.24604947e+02
  1955.000   3.23636700e+02
  1955.500   3.22673351e+02
  1956.000   3.21714867e+02
  1956.500   3.20761213e+02
  1957.000   3.19812354e+02
  1957.500   3.18868259e+02
  1958.000   3.17928894e+02
  1958.500   3.16994225e+02
  1959.000   3.16064221e+02
  1959.500   3.15138848e+02
  1960.000   3.14218076e+02
  1960.500   3.13301873e+02
  1961.000   3.12390206e+02
  1961.500   3.11483046e+02
  1962.000   3.10580360e+02
  1962.500   3.09682119e+02
  1963.000   3.08788292e+02
  1963.500   3.07898849e+02
  1964.000   3.07013760e+02
  1964.500   3.06132995e+02
  1965.000   3.05256526e+02
  1965.500   3.04384324e+02
  1966.000   3.03516359e+02
  1966.500   3.02652602e+02
  1967.000   3.01793027e+02
  1967.500   3.00937603e+02
  1968.000   3.00086305e+02
  1968.500   2.99239103e+02
  1969.000   2.98395972e+02
  1969.500   2.97556883e+02
  1970.000   2.96721810e+02
  1970.500   2.95890725e+02
  1971.000   2.95063604e+02
  1971.500   2.94240418e+02
  1972.000   2.93421143e+02
  1972.500   2.92605753e+02
  1973.000   2.91794222e+02
  1973.500   2.90986524e+02
  1974.000   2.90182635e+02
  1974.500   2.89382529e+02
  1975.000   2.88586182e+02
  1975.500   2.87793570e+02
  1976.000   2.87004667e+02
  1976.500   2.86219450e+02
  1977.000   2.85437896e+02
  1977.500   2.84659979e+02
  1978.000   2.83885677e+02
  1978.500   2.83114967e+02
  1979.000   2.82347825e+02
  1979.500   2.81584228e+02
  1980.000   2.80824153e+02
  1980.500   2.80067579e+02
  1981.000   2.79314482e+02
  1981.500   2.78564840e+02
  1982.000   2.77818631e+02
  1982.500   2.77075834e+02
  1983.000   2.76336427e+02
  1983.500   2.75600388e+02
  1984.000   2.74867696e+02
  1984.500   2.74138329e+02
  1985.000   2.73412267e+02
  1985.500   2.72689489e+02
  1986.000   2.71969975e+02
  1986.500   2.71253703e+02
  1987.000   2.70540654e+02
  1987.500   2.69830807e+02
  1988.000   2.69124142e+02
  1988.500   2.68420639e+02
  1989.000   2.67720280e+02
  1989.500   2.67023043e+02
  1990.000   2.66328911e+02
  1990.500   2.65637863e+02
  1991.000   2.64949880e+02
  1991.500   2.64264945e+02
  1992.000   2.63583037e+02
  1992.500   2.62904138e+02
  1993.000   2.62228230e+02
  1993.500   2.61555294e+02
  1994.000   2.60885313e+02
  1994.500   2.60218268e+02
  1995.000   2.59554141e+02
  1995.500   2.58892914e+02
  1996.000   2.58234570e+02
  1996.500   2.57579092e+02
  1997.000   2.56926461e+02
  1997.500   2.56276662e+02
  1998.000   2.55629676e+02
  1998.500   2.54985486e+02
  1999.000   2.54344077e+02
  1999.500   2.53705430e+02
  2000.000   2.53069530e+02
  2000.500   2.52436360e+02
  2001.000   2.51805904e+02
  2001.500   2.51178146e+02
  2002.000   2.50553069e+02
  2002.500   2.49930657e+02
  2003.000   2.49310896e+02
  2003.500   2.48693768e+02
  2004.000   2.48079258e+02
  2004.500   2.47467352e+02
  2005.000   2.46858033e+02
  2005.500   2.46251286e+02
  2006.000   2.45647097e+02
  2006.500   2.45045449e+02
  2007.000   2.44446329e+02
  2007.500   2.43849721e+02
  2008.000   2.43255611e+02
  2008.500   2.42663984e+02
  2009.000   2.42074826e+02
  2009.500   2.41488122e+02
  2010.000   2.40903858e+02
  2010.500   2.40322020e+02
  2011.000   2.39742594e+02
  2011.500   2.39165566e+02
  2012.000   2.38590922e+02
  2012.500   2.38018648e+02
  2013.000   2.37448731e+02
  2013.500   2.36881158e+02
  2014.000   2.36315914e+02
  2014.500   2.35752986e+02
  2015.000   2.35192362e+02
  2015.500   2.34634027e+02
  2016.000   2.34077970e+02
  2016.500   2.33524176e+02
  2017.000   2.32972634e+02
  2017.500   2.32423330e+02
  2018.000   2.31876252e+02
  2018.500   2.31331387e+02
  2019.000   2.30788722e+02
  2019.500   2.30248246e+02
  2020.000   2.29709946e+02
  2020.500   2.29173809e+02
  2021.000   2.28639824e+02
  2021.500   2.28107979e+02
  2022.000   2.27578261e+02
  2022.500   2.27050658e+02
  2023.000   2.26525160e+02
  2023.500   2.26001753e+02
  2024.000   2.25480428e+02
  2024.500   2.24961171e+02
  2025.000   2.24443971e+02
  2025.500   2.23928818e+02
  2026.000   2.23415700e+02
  2026.500   2.22904605e+02
  2027.000   2.22395523e+02
  2027.500   2.21888442e+02
  2028.000   2.21383351e+02
  2028.500   2.20880240e+02
  2029.000   2.20379098e+02
  2029.500   2.19879913e+02
  2030.000   2.19382676e+02
  2030.500   2.18887375e+02
  2031.000   2.18394000e+02
  2031.500   2.17902541e+02
  2032.000   2.17412987e+02
  2032.500   2.16925328e+02
  2033.000   2.16439554e+02
  2033.500   2.15955654e+02
  2034.000   2.15473619e+02
  2034.500   2.14993437e+02
  2035.000   2.14515101e+02
  2035.500   2.14038598e+02
  2036.000   2.13563921e+02
  2036.500   2.13091058e+02
  2037.000   2.12620000e+02
  2037.500   2.12150738e+02
  2038.000   2.11683261e+02
  2038.500   2.11217562e+02
  2039.000   2.10753629e+02
  2039.500   2.10291454e+02
  2040.000   2.09831027e+02
  2040.500   2.09372339e+02
  2041.000   2.08915382e+02
  2041.500   2.08460145e+02
  2042.000   2.08006620e+02
  2042.500   2.07554797e+02
  2043.000   2.07104668e+02
  2043.500   2.06656225e+02
  2044.000   2.06209457e+02
  2044.500   2.05764357e+02
  2045.000   2.05320915e+02
  2045.500   2.04879123e+02
  2046.000   2.04438973e+02
  2046.500   2.04000456e+02
  2047.000   2.03563563e+02
  2047.500   2.03128286e+02
  2048.000   2.02694616e+02
  2048.500   2.02262546e+02
  2049.000   2.01832067e+02
  2049.500   2.01403171e+02
  2050.000   2.00975850e+02
  2050.500   2.00550095e+02
  2051.000   2.00125899e+02
  2051.500   1.99703253e+02
  2052.000   1.99282150e+02
  2052.500   1.98862582e+02
  2053.000   1.98444541e+02
  2053.500   1.98028020e+02
  2054.000   1.97613009e+02
  2054.500   1.97199503e+02
  2055.000   1.96787492e+02
  2055.500   1.96376971e+02
  2056.000   1.95967930e+02
  2056.500   1.95560363e+02
  2057.000   1.95154262e+02
  2057.500   1.94749620e+02
  2058.000   1.94346429e+02
  2058.500   1.93944683e+02
  2059.000   1.93544374e+02
  2059.500   1.93145494e+02
  2060.000   1.92748037e+02
  2060.500   1.92351995e+02
  2061.000   1.91957362e+02
  2061.500   1.91564130e+02
  2062.000   1.91172292e+02
  2062.500   1.90781842e+02
  2063.000   1.90392773e+02
  2063.500   1.90005078e+02
  2064.000   1.89618749e+02
  2064.500   1.89233781e+02
  2065.000   1.88850166e+02
  2065.500   1.88467899e+02
  2066.000   1.88086971e+02
  2066.500   1.87707377e+02
  2067.000   1.87329111e+02
  2067.500   1.86952165e+02
  2068.000   1.86576533e+02
  2068.500   1.86202209e+02
  2069.000   1.85829186e+02
  2069.500   1.85457459e+02
  2070.000   1.85087020e+02
  2070.500   1.84717864e+02
  2071.000   1.84349984e+02
  2071.500   1.83983374e+02
  2072.000   1.83618028e+02
  2072.500   1.83253940e+02
  2073.000   1.82891103e+02
  2073.500   1.82529513e+02
  2074.000   1.82169162e+02
  2074.500   1.81810045e+02
  2075.000   1.81452156e+02
  2075.500   1.81095489e+02
  2076.000   1.80740038e+02
  2076.500   1.80385797e+02
  2077.000   1.80032761e+02
  2077.500   1.79680924e+02
  2078.000   1.79330280e+02
  2078.500   1.78980824e+02
  2079.000   1.78632549e+02
  2079.500   1.78285450e+02
  2080.000   1.77939522e+02
  2080.500   1.77594760e+02
  2081.000   1.77251156e+02
  2081.500   1.76908707e+02
  2082.000   1.76567407e+02
  2082.500   1.76227250e+02
  2083.000   1.75888231e+02
  2083.500   1.75550345e+02
  2084.000   1.75213586e+02
  2084.500   1.74877949e+02
  2085.000   1.74543429e+02
  2085.500   1.74210020e+02
  2086.000   1.73877718e+02
  2086.500   1.73546517e+02
  2087.000   1.73216412e+02
  2087.500   1.72887398e+02
  2088.000   1.72559470e+02
  2088.500   1.72232623e+02
  2089.000   1.71906853e+02
  2089.500   1.71582153e+02
  2090.000   1.71258519e+02
  2090.500   1.70935946e+02
  2091.000   1.70614430e+02
  2091.500   1.70293965e+02
  2092.000   1.69974547e+02
  2092.500   1.69656171e+02
  2093.000   1.69338831e+02
  2093.500   1.69022524e+02
  2094.000   1.68707245e+02
  2094.500   1.68392988e+02
  2095.000   1.68079750e+02
  2095.500   1.67767525e+02
  2096.000   1.67456310e+02
  2096.500   1.67146099e+02
  2097.000   1.66836888e+02
  2097.500   1.66528672e+02
  2098.000   1.66221447e+02
  2098.500   1.65915209e+02
  2099.000   1.65609952e+02
  2099.500   1.65305673e+02
  2100.000   1.65002368e+02
  2100.500   1.64700031e+02
  2101.000   1.64398658e+02
  2101.500   1.64098246e+02
  2102.000   1.63798790e+02
  2102.500   1.63500285e+02
  2103.000   1.63202728e+02
  2103.500   1.62906113e+02
  2104.000   1.62610438e+02
  2104.500   1.62315697e+02
  2105.000   1.62021888e+02
  2105.500   1.61729004e+02
  2106.000   1.61437043e+02
  2106.500   1.61146001e+02
  2107.000   1.60855872e+02
  2107.500   1.60566654e+02
  2108.000   1.60278342e+02
  2108.500   1.59990932e+02
  2109.000   1.59704421e+02
  2109.500   1.59418804e+02
  2110.000   1.59134077e+02
  2110.500   1.58850237e+02
  2111.000   1.58567280e+02
  2111.500   1.58285201e+02
  2112.000   1.58003998e+02
  2112.500   1.57723665e+02
  2113.000   1.57444200e+02
  2113.500   1.57165599e+02
  2114.000   1.56887857e+02
  2114.500   1.56610972e+02
  2115.000   1.56334939e+02
  2115.500   1.56059755e+02
  2116.000   1.55785416e+02
  2116.500   1.55511918e+02
  2117.000   1.55239258e+02
  2117.500   1.54967433e+02
  2118.000   1.54696438e+02
  2118.500   1.54426270e+02
  2119.000   1.54156925e+02
  2119.500   1.53888401e+02
  2120.000   1.53620693e+02
  2120.500   1.53353798e+02
  2121.000   1.53087713e+02
  2121.500   1.52822434e+02
  2122.000   1.52557958e+02
  2122.500   1.52294280e+02
  2123.000   1.52031399e+02
  2123.500   1.51769310e+02
  2124.000   1.51508011e+02
  2124.500   1.51247497e+02
  2125.000   1.50987765e+02
  2125.500   1.50728813e+02
  2126.000   1.50470637e+02
  2126.500   1.50213233e+02
  2127.000   1.49956599e+02
  2127.500   1.49700731e+02
  2128.000   1.49445626e+02
  2128.500   1.49191281e+02
  2129.000   1.48937692e+02
  2129.500   1.48684857e+02
  2130.000   1.48432772e+02
  2130.500   1.48181434e+02
  2131.000   1.47930840e+02
  2131.500   1.47680987e+02
  2132.000   1.47431872e+02
  2132.500   1.47183492e+02
  2133.000   1.46935843e+02
  2133.500   1.46688924e+02
  2134.000   1.46442730e+02
  2134.500   1.46197259e+02
  2135.000   1.45952507e+02
  2135.500   1.45708473e+02
  2136.000   1.45465152e+02
  2136.500   1.45222542e+02
  2137.000   1.44980640e+02
  2137.500   1.44739443e+02
  2138.000   1.44498949e+02
  2138.500   1.44259154e+02
  2139.000   1.44020055e+02
  2139.500   1.43781650e+02
  2140.000   1.43543935e+02
  2140.500   1.43306909e+02
  2141.000   1.43070568e+02
  2141.500   1.42834909e+02
  2142.000   1.42599930e+02
  2142.500   1.42365628e+02
  2143.000   1.42132000e+02
  2143.500   1.41899044e+02
  2144.000   1.41666756e+02
  2144.500   1.41435134e+02
  2145.000   1.41204176e+02
  2145.500   1.40973878e+02
  2146.000   1.40744238e+02
  2146.500   1.40515254e+02
  2147.000   1.40286922e+02
  2147.500   1.40059241e+02
  2148.000   1.39832207e+02
  2148.500   1.39605818e+02
  2149.000   1.39380071e+02
  2149.500   1.39154965e+02
  2150.000   1.38930495e+02
  2150.500   1.38706660e+02
  2151.000   1.38483458e+02
  2151.500   1.38260885e+02
  2152.000   1.38038939e+02
  2152.500   1.37817618e+02
  2153.000   1.37596920e+02
  2153.500   1.37376841e+02
  2154.000   1.37157379e+02
  2154.500   1.36938533e+02
  2155.000   1.36720299e+02
  2155.500   1.36502675e+02
  2156.000   1.36285658e+02
  2156.500   1.36069247e+02
  2157.000   1.35853439e+02
  2157.500   1.35638232e+02
  2158.000   1.35423623e+02
  2158.500   1.35209609e+02
  2159.000   1.34996189e+02
  2159.500   1.34783361e+02
  2160.000   1.34571121e+02
  2160.500   1.34359468e+02
  2161.000   1.34148400e+02
  2161.500   1.33937913e+02
  2162.000   1.33728007e+02
  2162.500   1.33518678e+02
  2163.000   1.33309924e+02
  2163.500   1.33101744e+02
  2164.000   1.32894134e+02
  2164.500   1.32687094e+02
  2165.000   1.32480620e+02
  2165.500   1.32274710e+02
  2166.000   1.32069362e+02
  2166.500   1.31864575e+02
  2167.000   1.31660345e+02
  2167.500   1.31456671e+02
  2168.000   1.31253551e+02
  2168.500   1.31050983e+02
  2169.000   1.30848963e+02
  2169.500   1.30647492e+02
  2170.000   1.30446565e+02
  2170.500   1.30246182e+02
  2171.000   1.30046339e+02
  2171.500   1.29847036e+02
  2172.000   1.29648270e+02
  2172.500   1.29450039e+02
  2173.000   1.29252340e+02
  2173.500   1.29055173e+02
  2174.000   1.28858535e+02
  2174.500   1.28662423e+02
  2175.000   1.28466837e+02
  2175.500   1.28271773e+02
  2176.000   1.28077231e+02
  2176.500   1.27883207e+02
  2177.000   1.27689701e+02
  2177.500   1.27496710e+02
  2178.000   1.27304232e+02
  2178.500   1.27112266e+02
  2179.000   1.26920809e+02
  2179.500   1.26729860e+02
  2180.000   1.26539416e+02
  2180.500   1.26349476e+02
  2181.000   1.26160037e+02
  2181.500   1.25971099e+02
  2182.000   1.25782659e+02
  2182.500   1.25594716e+02
  2183.000   1.25407267e+02
  2183.500   1.25220310e+02
  2184.000   1.25033844e+02
  2184.500   1.24847868e+02
  2185.000   1.24662378e+02
  2185.500   1.24477374e+02
  2186.000   1.24292854e+02
  2186.500   1.24108816e+02
  2187.000   1.23925257e+02
  2187.500   1.23742177e+02
  2188.000   1.23559574e+02
  2188.500   1.23377446e+02
  2189.000   1.23195790e+02
  2189.500   1.23014606e+02
  2190.000   1.22833892e+02
  2190.500   1.22653645e+02
  2191.000   1.22473865e+02
  2191.500   1.22294550e+02
  2192.000   1.22115697e+02
  2192.500   1.21937305e+02
  2193.000   1.21759373e+02
  2193.500   1.21581899e+02
  2194.000   1.21404881e+02
  2194.500   1.21228318e+02
  2195.000   1.21052208e+02
  2195.500   1.20876548e+02
  2196.000   1.20701339e+02
  2196.500   1.20526577e+02
  2197.000   1.20352262e+02
  2197.500   1.20178392e+02
  2198.000   1.20004965e+02
  2198.500   1.19831980e+02
  2199.000   1.19659435e+02
  2199.500   1.19487328e+02
  2200.000   1.19315658e+02
  2200.500   1.19144424e+02
  2201.000   1.18973623e+02
  2201.500   1.18803255e+02
  2202.000   1.18633317e+02
  2202.500   1.18463809e+02
  2203.000   1.18294728e+02
  2203.500   1.18126074e+02
  2204.000   1.17957844e+02
  2204.500   1.17790037e+02
  2205.000   1.17622652e+02
  2205.500   1.17455687e+02
  2206.000   1.17289141e+02
  2206.500   1.17123012e+02
  2207.000   1.16957299e+02
  2207.500   1.16792000e+02
  2208.000   1.16627114e+02
  2208.500   1.16462639e+02
  2209.000   1.16298574e+02
  2209.500   1.16134918e+02
  2210.000   1.15971669e+02
  2210.500   1.15808825e+02
  2211.000   1.15646386e+02
  2211.500   1.15484349e+02
  2212.000   1.15322714e+02
  2212.500   1.15161479e+02
  2213.000   1.15000643e+02
  2213.500   1.14840204e+02
  2214.000   1.14680161e+02
  2214.500   1.14520512e+02
  2215.000   1.14361256e+02
  2215.500   1.14202393e+02
  2216.000   1.14043919e+02
  2216.500   1.13885835e+02
  2217.000   1.13728138e+02
  2217.500   1.13570828e+02
  2218.000   1.13413903e+02
  2218.500   1.13257362e+02
  2219.000   1.13101203e+02
  2219.500   1.12945425e+02
  2220.000   1.12790027e+02
  2220.500   1.12635008e+02
  2221.000   1.12480365e+02
  2221.500   1.12326099e+02
  2222.000   1.12172207e+02
  2222.500   1.12018689e+02
  2223.000   1.11865543e+02
  2223.500   1.11712767e+02
  2224.000   1.11560361e+02
  2224.500   1.11408324e+02
  2225.000   1.11256653e+02
  2225.500   1.11105349e+02
  2226.000   1.10954408e+02
  2226.500   1.10803832e+02
  2227.000   1.10653617e+02
  2227.500   1.10503763e+02
  2228.000   1.10354269e+02
  2228.500   1.10205134e+02
  2229.000   1.10056355e+02
  2229.500   1.09907933e+02
  2230.000   1.09759865e+02
  2230.500   1.09612152e+02
  2231.000   1.09464790e+02
  2231.500   1.09317780e+02
  2232.000   1.09171120e+02
  2232.500   1.09024809e+02
  2233.000   1.08878846e+02
  2233.500   1.08733230e+02
  2234.000   1.08587959e+02
  2234.500   1.08443032e+02
  2235.000   1.08298448e+02
  2235.500   1.08154207e+02
  2236.000   1.08010306e+02
  2236.500   1.07866745e+02
  2237.000   1.07723523e+02
  2237.500   1.07580638e+02
  2238.000   1.07438090e+02
  2238.500   1.07295877e+02
  2239.000   1.07153998e+02
  2239.500   1.07012453e+02
  2240.000   1.06871239e+02
  2240.500   1.06730356e+02
  2241.000   1.06589803e+02
  2241.500   1.06449579e+02
  2242.000   1.06309682e+02
  2242.500   1.06170112e+02
  2243.000   1.06030867e+02
  2243.500   1.05891947e+02
  2244.000   1.05753350e+02
  2244.500   1.05615075e+02
  2245.000   1.05477122e+02
  2245.500   1.05339489e+02
  2246.000   1.05202175e+02
  2246.500   1.05065180e+02
  2247.000   1.04928501e+02
  2247.500   1.04792138e+02
  2248.000   1.04656091e+02
  2248.500   1.04520357e+02
  2249.000   1.04384937e+02
  2249.500   1.04249828e+02
  2250.000   1.04115031e+02
  2250.500   1.03980543e+02
  2251.000   1.03846365e+02
  2251.500   1.03712494e+02
  2252.000   1.03578931e+02
  2252.500   1.03445673e+02
  2253.000   1.03312720e+02
  2253.500   1.03180072e+02
  2254.000   1.03047727e+02
  2254.500   1.02915683e+02
  2255.000   1.02783941e+02
  2255.500   1.02652499e+02
  2256.000   1.02521356e+02
  2256.500   1.02390512e+02
  2257.000   1.02259964e+02
  2257.500   1.02129713e+02
  2258.000   1.01999758e+02
  2258.500   1.01870097e+02
  2259.000   1.01740729e+02
  2259.500   1.01611654e+02
  2260.000   1.01482871e+02
  2260.500   1.01354379e+02
  2261.000   1.01226176e+02
  2261.500   1.01098262e+02
  2262.000   1.00970637e+02
  2262.500   1.00843298e+02
  2263.000   1.00716245e+02
  2263.500   1.00589478e+02
  2264.000   1.00462995e+02
  2264.500   1.00336796e+02
  2265.000   1.00210880e+02
  2265.500   1.00085245e+02
  2266.000   9.99598904e+01
  2266.500   9.98348162e+01
  2267.000   9.97100211e+01
  2267.500   9.95855042e+01
  2268.000   9.94612647e+01
  2268.500   9.93373016e+01
  2269.000   9.92136141e+01
  2269.500   9.90902013e+01
  2270.000   9.89670625e+01
  2270.500   9.88441967e+01
  2271.000   9.87216031e+01
  2271.500   9.85992808e+01
  2272.000   9.84772290e+01
  2272.500   9.83554469e+01
  2273.000   9.82339337e+01
  2273.500   9.81126884e+01
  2274.000   9.79917103e+01
  2274.500   9.78709986e+01
  2275.000   9.77505524e+01
  2275.500   9.76303709e+01
  2276.000   9.75104533e+01
  2276.500   9.73907988e+01
  2277.000   9.72714065e+01
  2277.500   9.71522758e+01
  2278.000   9.70334057e+01
  2278.500   9.69147954e+01
  2279.000   9.67964443e+01
  2279.500   9.66783514e+01
  2280.000   9.65605160e+01
  2280.500   9.64429373e+01
  2281.000   9.63256146e+01
  2281.500   9.62085469e+01
  2282.000   9.60917337e+01
  2282.500   9.59751740e+01
  2283.000   9.58588672e+01
  2283.500   9.57428124e+01
  2284.000   9.56270089e+01
  2284.500   9.55114560e+01
  2285.000   9.53961528e+01
  2285.500   9.52810986e+01
  2286.000   9.51662927e+01
  2286.500   9.50517343e+01
  2287.000   9.49374226e+01
  2287.500   9.48233570e+01
  2288.000   9.47095367e+01
  2288.500   9.45959609e+01
  2289.000   9.44826289e+01
  2289.500   9.43695400e+01
  2290.000   9.42566934e+01
  2290.500   9.41440885e+01
  2291.000   9.40317244e+01
  2291.500   9.39196005e+01
  2292.000   9.38077161e+01
  2292.500   9.36960704e+01
  2293.000   9.35846628e+01
  2293.500   9.34734924e+01
  2294.000   9.33625587e+01
  2294.500   9.32518609e+01
  2295.000   9.31413983e+01
  2295.500   9.30311702e+01
  2296.000   9.29211759e+01
  2296.500   9.28114147e+01
  2297.000   9.27018860e+01
  2297.500   9.25925889e+01
  2298.000   9.24835230e+01
  2298.500   9.23746874e+01
  2299.000   9.22660815e+01
  2299.500   9.21577046e+01
  2300.000   9.20495561e+01
  2300.500   9.19416352e+01
  2301.000   9.18339413e+01
  2301.500   9.17264738e+01
  2302.000   9.16192319e+01
  2302.500   9.15122150e+01
  2303.000   9.14054224e+01
  2303.500   9.12988536e+01
  2304.000   9.11925077e+01
  2304.500   9.10863843e+01
  2305.000   9.09804826e+01
  2305.500   9.08748019e+01
  2306.000   9.07693417e+01
  2306.500   9.06641013e+01
  2307.000   9.05590800e+01
  2307.500   9.04542773e+01
  2308.000   9.03496924e+01
  2308.500   9.02453248e+01
  2309.000   9.01411739e+01
  2309.500   9.00372389e+01
  2310.000   8.99335192e+01
  2310.500   8.98300144e+01
  2311.000   8.97267236e+01
  2311.500   8.96236463e+01
  2312.000   8.95207820e+01
  2312.500   8.94181299e+01
  2313.000   8.93156895e+01
  2313.500   8.92134601e+01
  2314.000   8.91114412e+01
  2314.500   8.90096321e+01
  2315.000   8.89080323e+01
  2315.500   8.88066411e+01
  2316.000   8.87054579e+01
  2316.500   8.86044822e+01
  2317.000   8.85037133e+01
  2317.500   8.84031508e+01
  2318.000   8.83027938e+01
  2318.500   8.82026420e+01
  2319.000   8.81026947e+01
  2319.500   8.80029513e+01
  2320.000   8.79034112e+01
  2320.500   8.78040739e+01
  2321.000   8.77049388e+01
  2321.500   8.76060053e+01
  2322.000   8.75072729e+01
  2322.500   8.74087409e+01
  2323.000   8.73104088e+01
  2323.500   8.72122761e+01
  2324.000   8.71143421e+01
  2324.500   8.70166064e+01
  2325.000   8.69190683e+01
  2325.500   8.68217273e+01
  2326.000   8.67245829e+01
  2326.500   8.66276344e+01
  2327.000   8.65308814e+01
  2327.500   8.64343233e+01
  2328.000   8.63379595e+01
  2328.500   8.62417896e+01
  2329.000   8.61458129e+01
  2329.500   8.60500289e+01
  2330.000   8.59544370e+01
  2330.500   8.58590369e+01
  2331.000   8.57638278e+01
  2331.500   8.56688093e+01
  2332.000   8.55739808e+01
  2332.500   8.54793419e+01
  2333.000   8.53848919e+01
  2333.500   8.52906305e+01
  2334.000   8.51965569e+01
  2334.500   8.51026708e+01
  2335.000   8.50089715e+01
  2335.500   8.49154586e+01
  2336.000   8.48221316e+01
  2336.500   8.47289900e+01
  2337.000   8.46360332e+01
  2337.500   8.45432607e+01
  2338.000   8.44506720e+01
  2338.500   8.43582667e+01
  2339.000   8.42660441e+01
  2339.500   8.41740039e+01
  2340.000   8.40821454e+01
  2340.500   8.39904683e+01
  2341.000   8.38989720e+01
  2341.500   8.38076560e+01
  2342.000   8.37165198e+01
  2342.500   8.36255629e+01
  2343.000   8.35347848e+01
  2343.500   8.34441852e+01
  2344.000   8.33537633e+01
  2344.500   8.32635189e+01
  2345.000   8.31734513e+01
  2345.500   8.30835602e+01
  2346.000   8.29938449e+01
  2346.500   8.29043052e+01
  2347.000   8.28149404e+01
  2347.500   8.27257501e+01
  2348.000   8.26367338e+01
  2348.500   8.25478911e+01
  2349.000   8.24592215e+01
  2349.500   8.23707245e+01
  2350.000   8.22823996e+01
  2350.500   8.21942465e+01
  2351.000   8.21062645e+01
  2351.500   8.20184533e+01
  2352.000   8.19308125e+01
  2352.500   8.18433414e+01
  2353.000   8.17560398e+01
  2353.500   8.16689071e+01
  2354.000   8.15819429e+01
  2354.500   8.14951467e+01
  2355.000   8.14085181e+01
  2355.500   8.13220566e+01
  2356.000   8.12357618e+01
  2356.500   8.11496332e+01
  2357.000   8.10636704e+01
  2357.500   8.09778730e+01
  2358.000   8.08922405e+01
  2358.500   8.08067725e+01
  2359.000   8.07214684e+01
  2359.500   8.06363280e+01
  2360.000   8.05513508e+01
  2360.500   8.04665363e+01
  2361.000   8.03818841e+01
  2361.500   8.02973937e+01
  2362.000   8.02130648e+01
  2362.500   8.01288969e+01
  2363.000   8.00448896e+01
  2363.500   7.99610425e+01
  2364.000   7.98773551e+01
  2364.500   7.97938270e+01
  2365.000   7.97104578e+01
  2365.500   7.96272471e+01
  2366.000   7.95441945e+01
  2366.500   7.94612995e+01
  2367.000   7.93785618e+01
  2367.500   7.92959808e+01
  2368.000   7.92135563e+01
  2368.500   7.91312878e+01
  2369.000   7.90491749e+01
  2369.500   7.89672172e+01
  2370.000   7.88854142e+01
  2370.500   7.88037657e+01
  2371.000   7.87222711e+01
  2371.500   7.86409301e+01
  2372.000   7.85597423e+01
  2372.500   7.84787072e+01
  2373.000   7.83978245e+01
  2373.500   7.83170938e+01
  2374.000   7.82365147e+01
  2374.500   7.81560868e+01
  2375.000   7.80758097e+01
  2375.500   7.79956830e+01
  2376.000   7.79157064e+01
  2376.500   7.78358794e+01
  2377.000   7.77562016e+01
  2377.500   7.76766727e+01
  2378.000   7.75972923e+01
  2378.500   7.75180600e+01
  2379.000   7.74389754e+01
  2379.500   7.73600381e+01
  2380.000   7.72812478e+01
  2380.500   7.72026041e+01
  2381.000   7.71241066e+01
  2381.500   7.70457550e+01
  2382.000   7.69675488e+01
  2382.500   7.68894877e+01
  2383.000   7.68115713e+01
  2383.500   7.67337992e+01
  2384.000   7.66561712e+01
  2384.500   7.65786867e+01
  2385.000   7.65013455e+01
  2385.500   7.64241472e+01
  2386.000   7.63470914e+01
  2386.500   7.62701778e+01
  2387.000   7.61934059e+01
  2387.500   7.61167755e+01
  2388.000   7.60402862e+01
  2388.500   7.59639376e+01
  2389.000   7.58877294e+01
  2389.500   7.58116612e+01
  2390.000   7.57357326e+01
  2390.500   7.56599433e+01
  2391.000   7.55842930e+01
  2391.500   7.55087813e+01
  2392.000   7.54334078e+01
  2392.500   7.53581723e+01
  2393.000   7.52830743e+01
  2393.500   7.52081135e+01
  2394.000   7.51332896e+01
  2394.500   7.50586023e+01
  2395.000   7.49840511e+01
  2395.500   7.49096357e+01
  2396.000   7.48353559e+01
  2396.500   7.47612112e+01
  2397.000   7.46872014e+01
  2397.500   7.46133260e+01
  2398.000   7.45395848e+01
  2398.500   7.44659775e+01
  2399.000   7.43925036e+01
  2399.500   7.43191629e+01
  2400.000   7.42459550e+01
  2400.500   7.41728796e+01
  2401.000   7.40999363e+01
  2401.500   7.40271249e+01
  2402.000   7.39544451e+01
  2402.500   7.38818964e+01
  2403.000   7.38094786e+01
  2403.500   7.37371913e+01
  2404.000   7.36650343e+01
  2404.500   7.35930071e+01
  2405.000   7.35211095e+01
  2405.500   7.34493412e+01
  2406.000   7.33777018e+01
  2406.500   7.33061911e+01
  2407.000   7.32348087e+01
  2407.500   7.31635542e+01
  2408.000   7.30924275e+01
  2408.500   7.30214281e+01
  2409.000   7.29505557e+01
  2409.500   7.28798102e+01
  2410.000   7.28091910e+01
  2410.500   7.27386980e+01
  2411.000   7.26683308e+01
  2411.500   7.25980891e+01
  2412.000   7.25279726e+01
  2412.500   7.24579810e+01
  2413.000   7.23881141e+01
  2413.500   7.23183714e+01
  2414.000   7.22487527e+01
  2414.500   7.21792577e+01
  2415.000   7.21098862e+01
  2415.500   7.20406377e+01
  2416.000   7.19715120e+01
  2416.500   7.19025088e+01
  2417.000   7.18336278e+01
  2417.500   7.17648687e+01
  2418.000   7.16962313e+01
  2418.500   7.16277151e+01
  2419.000   7.15593201e+01
  2419.500   7.14910457e+01
  2420.000   7.14228918e+01
  2420.500   7.13548581e+01
  2421.000   7.12869442e+01
  2421.500   7.12191499e+01
  2422.000   7.11514750e+01
  2422.500   7.10839190e+01
  2423.000   7.10164818e+01
  2423.500   7.09491630e+01
  2424.000   7.08819624e+01
  2424.500   7.08148797e+01
  2425.000   7.07479146e+01
  2425.500   7.06810668e+01
  2426.000   7.06143360e+01
  2426.500   7.05477220e+01
  2427.000   7.04812245e+01
  2427.500   7.04148432e+01
  2428.000   7.03485779e+01
  2428.500   7.02824282e+01
  2429.000   7.02163939e+01
  2429.500   7.01504747e+01
  2430.000   7.00846703e+01
  2430.500   7.00189806e+01
  2431.000   6.99534051e+01
  2431.500   6.98879437e+01
  2432.000   6.98225960e+01
  2432.500   6.97573618e+01
  2433.000   6.96922409e+01
  2433.500   6.96272329e+01
  2434.000   6.95623376e+01
  2434.500   6.94975548e+01
  2435.000   6.94328841e+01
  2435.500   6.93683253e+01
  2436.000   6.93038782e+01
  2436.500   6.92395425e+01
  2437.000   6.91753179e+01
  2437.500   6.91112041e+01
  2438.000   6.90472010e+01
  2438.500   6.89833082e+01
  2439.000   6.89195255e+01
  2439.500   6.88558527e+01
  2440.000   6.87922894e+01
  2440.500   6.87288355e+01
  2441.000   6.86654907e+01
  2441.500   6.86022546e+01
  2442.000   6.85391272e+01
  2442.500   6.84761080e+01
  2443.000   6.84131970e+01
  2443.500   6.83503937e+01
  2444.000   6.82876980e+01
  2444.500   6.82251097e+01
  2445.000   6.81626284e+01
  2445.500   6.81002540e+01
  2446.000   6.80379861e+01
  2446.500   6.79758246e+01
  2447.000   6.79137692e+01
  2447.500   6.78518196e+01
  2448.000   6.77899756e+01
  2448.500   6.77282370e+01
  2449.000   6.76666036e+01
  2449.500   6.76050750e+01
  2450.000   6.75436510e+01
  2450.500   6.74823315e+01
  2451.000   6.74211162e+01
  2451.500   6.73600047e+01
  2452.000   6.72989970e+01
  2452.500   6.72380927e+01
  2453.000   6.71772917e+01
  2453.500   6.71165937e+01
  2454.000   6.70559984e+01
  2454.500   6.69955056e+01
  2455.000   6.69351151e+01
  2455.500   6.68748267e+01
  2456.000   6.68146402e+01
  2456.500   6.67545552e+01
  2457.000   6.66945716e+01
  2457.500   6.66346891e+01
  2458.000   6.65749076e+01
  2458.500   6.65152267e+01
  2459.000   6.64556464e+01
  2459.500   6.63961662e+01
  2460.000   6.63367861e+01
  2460.500   6.62775057e+01
  2461.000   6.62183249e+01
  2461.500   6.61592435e+01
  2462.000   6.61002611e+01
  2462.500   6.60413777e+01
  2463.000   6.59825930e+01
  2463.500   6.59239067e+01
  2464.000   6.58653186e+01
  2464.500   6.58068286e+01
  2465.000   6.57484363e+01
  2465.500   6.56901417e+01
  2466.000   6.56319444e+01
  2466.500   6.55738442e+01
  2467.000   6.55158410e+01
  2467.500   6.54579345e+01
  2468.000   6.54001246e+01
  2468.500   6.53424109e+01
  2469.000   6.52847933e+01
  2469.500   6.52272715e+01
  2470.000   6.51698454e+01
  2470.500   6.51125148e+01
  2471.000   6.50552794e+01
  2471.500   6.49981390e+01
  2472.000   6.49410935e+01
  2472.500   6.48841425e+01
  2473.000   6.48272860e+01
  2473.500   6.47705236e+01
  2474.000   6.47138553e+01
  2474.500   6.46572807e+01
  2475.000   6.46007997e+01
  2475.500   6.45444121e+01
  2476.000   6.44881176e+01
  2476.500   6.44319161e+01
  2477.000   6.43758074e+01
  2477.500   6.43197913e+01
  2478.000   6.42638675e+01
  2478.500   6.42080358e+01
  2479.000   6.41522962e+01
  2479.500   6.40966482e+01
  2480.000   6.40410919e+01
  2480.500   6.39856269e+01
  2481.000   6.39302531e+01
  2481.500   6.38749702e+01
  2482.000   6.38197781e+01
  2482.500   6.37646766e+01
  2483.000   6.37096655e+01
  2483.500   6.36547446e+01
  2484.000   6.35999137e+01
  2484.500   6.35451725e+01
  2485.000   6.34905210e+01
  2485.500   6.34359589e+01
  2486.000   6.33814860e+01
  2486.500   6.33271022e+01
  2487.000   6.32728071e+01
  2487.500   6.32186008e+01
  2488.000   6.31644829e+01
  2488.500   6.31104533e+01
  2489.000   6.30565118e+01
  2489.500   6.30026581e+01
  2490.000   6.29488922e+01
  2490.500   6.28952138e+01
  2491.000   6.28416228e+01
  2491.500   6.27881189e+01
  2492.000   6.27347019e+01
  2492.500   6.26813718e+01
  2493.000   6.26281283e+01
  2493.500   6.25749711e+01
  2494.000   6.25219003e+01
  2494.500   6.24689154e+01
  2495.000   6.24160165e+01
  2495.500   6.23632032e+01
  2496.000   6.23104755e+01
  2496.500   6.22578331e+01
  2497.000   6.22052758e+01
  2497.500   6.21528035e+01
  2498.000   6.21004160e+01
  2498.500   6.20481132e+01
  2499.000   6.19958947e+01
  2499.500   6.19437606e+01
  2500.000   6.18917105e+01
  2500.500   6.18397444e+01
  2501.000   6.17878620e+01
  2501.500   6.17360631e+01
  2502.000   6.16843477e+01
  2502.500   6.16327154e+01
  2503.000   6.15811662e+01
  2503.500   6.15296999e+01
  2504.000   6.14783163e+01
  2504.500   6.14270152e+01
  2505.000   6.13757965e+01
  2505.500   6.13246600e+01
  2506.000   6.12736055e+01
  2506.500   6.12226328e+01
  2507.000   6.11717418e+01
  2507.500   6.11209323e+01
  2508.000   6.10702042e+01
  2508.500   6.10195573e+01
  2509.000   6.09689914e+01
  2509.500   6.09185063e+01
  2510.000   6.08681019e+01
  2510.500   6.08177780e+01
  2511.000   6.07675345e+01
  2511.500   6.07173712e+01
  2512.000   6.06672878e+01
  2512.500   6.06172844e+01
  2513.000   6.05673606e+01
  2513.500   6.05175164e+01
  2514.000   6.04677516e+01
  2514.500   6.04180659e+01
  2515.000   6.03684594e+01
  2515.500   6.03189317e+01
  2516.000   6.02694827e+01
  2516.500   6.02201124e+01
  2517.000   6.01708204e+01
  2517.500   6.01216067e+01
  2518.000   6.00724711e+01
  2518.500   6.00234134e+01
  2519.000   5.99744336e+01
  2519.500   5.99255313e+01
  2520.000   5.98767066e+01
  2520.500   5.98279591e+01
  2521.000   5.97792888e+01
  2521.500   5.97306955e+01
  2522.000   5.96821791e+01
  2522.500   5.96337394e+01
  2523.000   5.95853762e+01
  2523.500   5.95370894e+01
  2524.000   5.94888789e+01
  2524.500   5.94407444e+01
  2525.000   5.93926859e+01
  2525.500   5.93447032e+01
  2526.000   5.92967961e+01
  2526.500   5.92489646e+01
  2527.000   5.92012083e+01
  2527.500   5.91535273e+01
  2528.000   5.91059212e+01
  2528.500   5.90583901e+01
  2529.000   5.90109337e+01
  2529.500   5.89635520e+01
  2530.000   5.89162447e+01
  2530.500   5.88690116e+01
  2531.000   5.88218528e+01
  2531.500   5.87747680e+01
  2532.000   5.87277570e+01
  2532.500   5.86808198e+01
  2533.000   5.86339561e+01
  2533.500   5.85871659e+01
  2534.000   5.85404490e+01
  2534.500   5.84938052e+01
  2535.000   5.84472345e+01
  2535.500   5.84007366e+01
  2536.000   5.83543114e+01
  2536.500   5.83079588e+01
  2537.000   5.82616787e+01
  2537.500   5.82154709e+01
  2538.000   5.81693352e+01
  2538.500   5.81232716e+01
  2539.000   5.80772798e+01
  2539.500   5.80313598e+01
  2540.000   5.79855114e+01
  2540.500   5.79397345e+01
  2541.000   5.78940289e+01
  2541.500   5.78483946e+01
  2542.000   5.78028312e+01
  2542.500   5.77573389e+01
  2543.000   5.77119172e+01
  2543.500   5.76665663e+01
  2544.000   5.76212859e+01
  2544.500   5.75760758e+01
  2545.000   5.75309360e+01
  2545.500   5.74858664e+01
  2546.000   5.74408667e+01
  2546.500   5.73959369e+01
  2547.000   5.73510767e+01
  2547.500   5.73062862e+01
  2548.000   5.72615652e+01
  2548.500   5.72169134e+01
  2549.000   5.71723309e+01
  2549.500   5.71278174e+01
  2550.000   5.70833728e+01
  2550.500   5.70389971e+01
  2551.000   5.69946900e+01
  2551.500   5.69504515e+01
  2552.000   5.69062814e+01
  2552.500   5.68621796e+01
  2553.000   5.68181460e+01
  2553.500   5.67741804e+01
  2554.000   5.67302827e+01
  2554.500   5.66864527e+01
  2555.000   5.66426905e+01
  2555.500   5.65989957e+01
  2556.000   5.65553684e+01
  2556.500   5.65118084e+01
  2557.000   5.64683155e+01
  2557.500   5.64248896e+01
  2558.000   5.63815307e+01
  2558.500   5.63382385e+01
  2559.000   5.62950130e+01
  2559.500   5.62518540e+01
  2560.000   5.62087615e+01
  2560.500   5.61657352e+01
  2561.000   5.61227752e+01
  2561.500   5.60798811e+01
  2562.000   5.60370531e+01
  2562.500   5.59942908e+01
  2563.000   5.59515942e+01
  2563.500   5.59089632e+01
  2564.000   5.58663976e+01
  2564.500   5.58238973e+01
  2565.000   5.57814623e+01
  2565.500   5.57390924e+01
  2566.000   5.56967875e+01
  2566.500   5.56545474e+01
  2567.000   5.56123720e+01
  2567.500   5.55702613e+01
  2568.000   5.55282151e+01
  2568.500   5.54862333e+01
  2569.000   5.54443158e+01
  2569.500   5.54024624e+01
  2570.000   5.53606731e+01
  2570.500   5.53189477e+01
  2571.000   5.52772861e+01
  2571.500   5.52356883e+01
  2572.000   5.51941540e+01
  2572.500   5.51526832e+01
  2573.000   5.51112758e+01
  2573.500   5.50699316e+01
  2574.000   5.50286506e+01
  2574.500   5.49874326e+01
  2575.000   5.49462775e+01
  2575.500   5.49051853e+01
  2576.000   5.48641557e+01
  2576.500   5.48231887e+01
  2577.000   5.47822842e+01
  2577.500   5.47414421e+01
  2578.000   5.47006622e+01
  2578.500   5.46599444e+01
  2579.000   5.46192887e+01
  2579.500   5.45786950e+01
  2580.000   5.45381630e+01
  2580.500   5.44976928e+01
  2581.000   5.44572842e+01
  2581.500   5.44169370e+01
  2582.000   5.43766513e+01
  2582.500   5.43364269e+01
  2583.000   5.42962636e+01
  2583.500   5.42561614e+01
  2584.000   5.42161202e+01
  2584.500   5.41761399e+01
  2585.000   5.41362203e+01
  2585.500   5.40963614e+01
  2586.000   5.40565630e+01
  2586.500   5.40168251e+01
  2587.000   5.39771475e+01
  2587.500   5.39375301e+01
  2588.000   5.38979729e+01
  2588.500   5.38584758e+01
  2589.000   5.38190385e+01
  2589.500   5.37796612e+01
  2590.000   5.37403435e+01
  2590.500   5.37010855e+01
  2591.000   5.36618870e+01
  2591.500   5.36227479e+01
  2592.000   5.35836681e+01
  2592.500   5.35446476e+01
  2593.000   5.35056863e+01
  2593.500   5.34667839e+01
  2594.000   5.34279405e+01
  2594.500   5.33891559e+01
  2595.000   5.33504301e+01
  2595.500   5.33117629e+01
  2596.000   5.32731542e+01
  2596.500   5.32346040e+01
  2597.000   5.31961121e+01
  2597.500   5.31576785e+01
  2598.000   5.31193030e+01
  2598.500   5.30809856e+01
  2599.000   5.30427261e+01
  2599.500   5.30045245e+01
  2600.000   5.29663807e+01
  2600.500   5.29282946e+01
  2601.000   5.28902660e+01
  2601.500   5.28522949e+01
  2602.000   5.28143812e+01
  2602.500   5.27765249e+01
  2603.000   5.27387257e+01
  2603.500   5.27009836e+01
  2604.000   5.26632986e+01
  2604.500   5.26256705e+01
  2605.000   5.25880992e+01
  2605.500   5.25505847e+01
  2606.000   5.25131268e+01
  2606.500   5.24757255e+01
  2607.000   5.24383807e+01
  2607.500   5.24010922e+01
  2608.000   5.23638601e+01
  2608.500   5.23266841e+01
  2609.000   5.22895643e+01
  2609.500   5.22525004e+01
  2610.000   5.22154926e+01
  2610.500   5.21785405e+01
  2611.000   5.21416442e+01
  2611.500   5.21048036e+01
  2612.000   5.20680186e+01
  2612.500   5.20312890e+01
  2613.000   5.19946149e+01
  2613.500   5.19579961e+01
  2614.000   5.19214325e+01
  2614.500   5.18849240e+01
  2615.000   5.18484707e+01
  2615.500   5.18120722e+01
  2616.000   5.17757287e+01
  2616.500   5.17394400e+01
  2617.000   5.17032060e+01
  2617.500   5.16670267e+01
  2618.000   5.16309019e+01
  2618.500   5.15948315e+01
  2619.000   5.15588156e+01
  2619.500   5.15228539e+01
  2620.000   5.14869464e+01
  2620.500   5.14510931e+01
  2621.000   5.14152939e+01
  2621.500   5.13795486e+01
  2622.000   5.13438572e+01
  2622.500   5.13082196e+01
  2623.000   5.12726357e+01
  2623.500   5.12371055e+01
  2624.000   5.12016288e+01
  2624.500   5.11662056e+01
  2625.000   5.11308358e+01
  2625.500   5.10955193e+01
  2626.000   5.10602561e+01
  2626.500   5.10250460e+01
  2627.000   5.09898890e+01
  2627.500   5.09547850e+01
  2628.000   5.09197340e+01
  2628.500   5.08847358e+01
  2629.000   5.08497903e+01
  2629.500   5.08148976e+01
  2630.000   5.07800574e+01
  2630.500   5.07452698e+01
  2631.000   5.07105347e+01
  2631.500   5.06758519e+01
  2632.000   5.06412214e+01
  2632.500   5.06066432e+01
  2633.000   5.05721171e+01
  2633.500   5.05376431e+01
  2634.000   5.05032212e+01
  2634.500   5.04688511e+01
  2635.000   5.04345329e+01
  2635.500   5.04002665e+01
  2636.000   5.03660517e+01
  2636.500   5.03318886e+01
  2637.000   5.02977771e+01
  2637.500   5.02637171e+01
  2638.000   5.02297084e+01
  2638.500   5.01957511e+01
  2639.000   5.01618451e+01
  2639.500   5.01279903e+01
  2640.000   5.00941865e+01
  2640.500   5.00604339e+01
  2641.000   5.00267322e+01
  2641.500   4.99930814e+01
  2642.000   4.99594815e+01
  2642.500   4.99259323e+01
  2643.000   4.98924338e+01
  2643.500   4.98589860e+01
  2644.000   4.98255887e+01
  2644.500   4.97922419e+01
  2645.000   4.97589455e+01
  2645.500   4.97256995e+01
  2646.000   4.96925037e+01
  2646.500   4.96593582e+01
  2647.000   4.96262627e+01
  2647.500   4.95932174e+01
  2648.000   4.95602221e+01
  2648.500   4.95272767e+01
  2649.000   4.94943812e+01
  2649.500   4.94615355e+01
  2650.000   4.94287396e+01
  2650.500   4.93959933e+01
  2651.000   4.93632966e+01
  2651.500   4.93306495e+01
  2652.000   4.92980518e+01
  2652.500   4.92655036e+01
  2653.000   4.92330047e+01
  2653.500   4.92005551e+01
  2654.000   4.91681547e+01
  2654.500   4.91358034e+01
  2655.000   4.91035013e+01
  2655.500   4.90712481e+01
  2656.000   4.90390440e+01
  2656.500   4.90068887e+01
  2657.000   4.89747823e+01
  2657.500   4.89427246e+01
  2658.000   4.89107157e+01
  2658.500   4.88787554e+01
  2659.000   4.88468437e+01
  2659.500   4.88149805e+01
  2660.000   4.87831658e+01
  2660.500   4.87513995e+01
  2661.000   4.87196815e+01
  2661.500   4.86880118e+01
  2662.000   4.86563904e+01
  2662.500   4.86248171e+01
  2663.000   4.85932919e+01
  2663.500   4.85618147e+01
  2664.000   4.85303856e+01
  2664.500   4.84990043e+01
  2665.000   4.84676710e+01
  2665.500   4.84363854e+01
  2666.000   4.84051476e+01
  2666.500   4.83739575e+01
  2667.000   4.83428150e+01
  2667.500   4.83117201e+01
  2668.000   4.82806727e+01
  2668.500   4.82496728e+01
  2669.000   4.82187202e+01
  2669.500   4.81878151e+01
  2670.000   4.81569572e+01
  2670.500   4.81261466e+01
  2671.000   4.80953832e+01
  2671.500   4.80646668e+01
  2672.000   4.80339976e+01
  2672.500   4.80033754e+01
  2673.000   4.79728001e+01
  2673.500   4.79422718e+01
  2674.000   4.79117903e+01
  2674.500   4.78813556e+01
  2675.000   4.78509677e+01
  2675.500   4.78206264e+01
  2676.000   4.77903318e+01
  2676.500   4.77600838e+01
  2677.000   4.77298824e+01
  2677.500   4.76997274e+01
  2678.000   4.76696188e+01
  2678.500   4.76395567e+01
  2679.000   4.76095408e+01
  2679.500   4.75795713e+01
  2680.000   4.75496480e+01
  2680.500   4.75197708e+01
  2681.000   4.74899398e+01
  2681.500   4.74601549e+01
  2682.000   4.74304160e+01
  2682.500   4.74007231e+01
  2683.000   4.73710761e+01
  2683.500   4.73414750e+01
  2684.000   4.73119197e+01
  2684.500   4.72824102e+01
  2685.000   4.72529464e+01
  2685.500   4.72235284e+01
  2686.000   4.71941559e+01
  2686.500   4.71648291e+01
  2687.000   4.71355478e+01
  2687.500   4.71063120e+01
  2688.000   4.70771217e+01
  2688.500   4.70479768e+01
  2689.000   4.70188772e+01
  2689.500   4.69898229e+01
  2690.000   4.69608139e+01
  2690.500   4.69318502e+01
  2691.000   4.69029316e+01
  2691.500   4.68740581e+01
  2692.000   4.68452298e+01
  2692.500   4.68164465e+01
  2693.000   4.67877082e+01
  2693.500   4.67590148e+01
  2694.000   4.67303663e+01
  2694.500   4.67017628e+01
  2695.000   4.66732040e+01
  2695.500   4.66446901e+01
  2696.000   4.66162208e+01
  2696.500   4.65877963e+01
  2697.000   4.65594165e+01
  2697.500   4.65310812e+01
  2698.000   4.65027905e+01
  2698.500   4.64745444e+01
  2699.000   4.64463428e+01
  2699.500   4.64181856e+01
  2700.000   4.63900728e+01
  2700.500   4.63620044e+01
  2701.000   4.63339803e+01
  2701.500   4.63060005e+01
  2702.000   4.62780650e+01
  2702.500   4.62501737e+01
  2703.000   4.62223266e+01
  2703.500   4.61945236e+01
  2704.000   4.61667647e+01
  2704.500   4.61390499e+01
  2705.000   4.61113790e+01
  2705.500   4.60837522e+01
  2706.000   4.60561694e+01
  2706.500   4.60286304e+01
  2707.000   4.60011353e+01
  2707.500   4.59736841e+01
  2708.000   4.59462766e+01
  2708.500   4.59189130e+01
  2709.000   4.58915930e+01
  2709.500   4.58643168e+01
  2710.000   4.58370842e+01
  2710.500   4.58098952e+01
  2711.000   4.57827499e+01
  2711.500   4.57556481e+01
  2712.000   4.57285898e+01
  2712.500   4.57015750e+01
  2713.000   4.56746037e+01
  2713.500   4.56476758e+01
  2714.000   4.56207913e+01
  2714.500   4.55939502e+01
  2715.000   4.55671524e+01
  2715.500   4.55403979e+01
  2716.000   4.55136866e+01
  2716.500   4.54870186e+01
  2717.000   4.54603938e+01
  2717.500   4.54338121e+01
  2718.000   4.54072736e+01
  2718.500   4.53807782e+01
  2719.000   4.53543259e+01
  2719.500   4.53279166e+01
  2720.000   4.53015504e+01
  2720.500   4.52752271e+01
  2721.000   4.52489469e+01
  2721.500   4.52227095e+01
  2722.000   4.51965151e+01
  2722.500   4.51703635e+01
  2723.000   4.51442548e+01
  2723.500   4.51181889e+01
  2724.000   4.50921658e+01
  2724.500   4.50661855e+01
  2725.000   4.50402479e+01
  2725.500   4.50143530e+01
  2726.000   4.49885008e+01
  2726.500   4.49626913e+01
  2727.000   4.49369244e+01
  2727.500   4.49112002e+01
  2728.000   4.48855185e+01
  2728.500   4.48598794e+01
  2729.000   4.48342828e+01
  2729.500   4.48087288e+01
  2730.000   4.47832172e+01
  2730.500   4.47577481e+01
  2731.000   4.47323215e+01
  2731.500   4.47069372e+01
  2732.000   4.46815954e+01
  2732.500   4.46562960e+01
  2733.000   4.46310389e+01
  2733.500   4.46058241e+01
  2734.000   4.45806517e+01
  2734.500   4.45555215e+01
  2735.000   4.45304336e+01
  2735.500   4.45053880e+01
  2736.000   4.44803846e+01
  2736.500   4.44554234e+01
  2737.000   4.44305044e+01
  2737.500   4.44056275e+01
  2738.000   4.43807929e+01
  2738.500   4.43560003e+01
  2739.000   4.43312499e+01
  2739.500   4.43065415e+01
  2740.000   4.42818753e+01
  2740.500   4.42572511e+01
  2741.000   4.42326689e+01
  2741.500   4.42081288e+01
  2742.000   4.41836307e+01
  2742.500   4.41591746e+01
  2743.000   4.41347604e+01
  2743.500   4.41103883e+01
  2744.000   4.40860580e+01
  2744.500   4.40617697e+01
  2745.000   4.40375233e+01
  2745.500   4.40133189e+01
  2746.000   4.39891563e+01
  2746.500   4.39650356e+01
  2747.000   4.39409567e+01
  2747.500   4.39169197e+01
  2748.000   4.38929245e+01
  2748.500   4.38689712e+01
  2749.000   4.38450597e+01
  2749.500   4.38211899e+01
  2750.000   4.37973620e+01
  2750.500   4.37735758e+01
  2751.000   4.37498314e+01
  2751.500   4.37261287e+01
  2752.000   4.37024678e+01
  2752.500   4.36788487e+01
  2753.000   4.36552712e+01
  2753.500   4.36317355e+01
  2754.000   4.36082415e+01
  2754.500   4.35847891e+01
  2755.000   4.35613785e+01
  2755.500   4.35380096e+01
  2756.000   4.35146823e+01
  2756.500   4.34913967e+01
  2757.000   4.34681527e+01
  2757.500   4.34449504e+01
  2758.000   4.34217897e+01
  2758.500   4.33986707e+01
  2759.000   4.33755934e+01
  2759.500   4.33525576e+01
  2760.000   4.33295635e+01
  2760.500   4.33066110e+01
  2761.000   4.32837001e+01
  2761.500   4.32608308e+01
  2762.000   4.32380032e+01
  2762.500   4.32152171e+01
  2763.000   4.31924727e+01
  2763.500   4.31697698e+01
  2764.000   4.31471085e+01
  2764.500   4.31244889e+01
  2765.000   4.31019108e+01
  2765.500   4.30793743e+01
  2766.000   4.30568795e+01
  2766.500   4.30344262e+01
  2767.000   4.30120145e+01
  2767.500   4.29896444e+01
  2768.000   4.29673159e+01
  2768.500   4.29450289e+01
  2769.000   4.29227836e+01
  2769.500   4.29005799e+01
  2770.000   4.28784178e+01
  2770.500   4.28562973e+01
  2771.000   4.28342184e+01
  2771.500   4.28121811e+01
  2772.000   4.27901854e+01
  2772.500   4.27682313e+01
  2773.000   4.27463188e+01
  2773.500   4.27244480e+01
  2774.000   4.27026188e+01
  2774.500   4.26808312e+01
  2775.000   4.26590853e+01
  2775.500   4.26373810e+01
  2776.000   4.26157184e+01
  2776.500   4.25940975e+01
  2777.000   4.25725182e+01
  2777.500   4.25509806e+01
  2778.000   4.25294846e+01
  2778.500   4.25080304e+01
  2779.000   4.24866179e+01
  2779.500   4.24652471e+01
  2780.000   4.24439180e+01
  2780.500   4.24226306e+01
  2781.000   4.24013850e+01
  2781.500   4.23801812e+01
  2782.000   4.23590191e+01
  2782.500   4.23378987e+01
  2783.000   4.23168202e+01
  2783.500   4.22957835e+01
  2784.000   4.22747886e+01
  2784.500   4.22538355e+01
  2785.000   4.22329243e+01
  2785.500   4.22120549e+01
  2786.000   4.21912274e+01
  2786.500   4.21704417e+01
  2787.000   4.21496980e+01
  2787.500   4.21289962e+01
  2788.000   4.21083364e+01
  2788.500   4.20877184e+01
  2789.000   4.20671425e+01
  2789.500   4.20466085e+01
  2790.000   4.20261166e+01
  2790.500   4.20056667e+01
  2791.000   4.19852588e+01
  2791.500   4.19648930e+01
  2792.000   4.19445692e+01
  2792.500   4.19242876e+01
  2793.000   4.19040481e+01
  2793.500   4.18838507e+01
  2794.000   4.18636955e+01
  2794.500   4.18435825e+01
  2795.000   4.18235117e+01
  2795.500   4.18034831e+01
  2796.000   4.17834968e+01
  2796.500   4.17635527e+01
  2797.000   4.17436510e+01
  2797.500   4.17237916e+01
  2798.000   4.17039746e+01
  2798.500   4.16841999e+01
  2799.000   4.16644677e+01
  2799.500   4.16447779e+01
  2800.000   4.16251305e+01
  2800.500   4.16055257e+01
  2801.000   4.15859633e+01
  2801.500   4.15664435e+01
  2802.000   4.15469663e+01
  2802.500   4.15275317e+01
  2803.000   4.15081397e+01
  2803.500   4.14887904e+01
  2804.000   4.14694838e+01
  2804.500   4.14502200e+01
  2805.000   4.14309988e+01
  2805.500   4.14118205e+01
  2806.000   4.13926850e+01
  2806.500   4.13735924e+01
  2807.000   4.13545427e+01
  2807.500   4.13355359e+01
  2808.000   4.13165721e+01
  2808.500   4.12976513e+01
  2809.000   4.12787735e+01
  2809.500   4.12599388e+01
  2810.000   4.12411472e+01
  2810.500   4.12223987e+01
  2811.000   4.12036935e+01
  2811.500   4.11850314e+01
  2812.000   4.11664127e+01
  2812.500   4.11478372e+01
  2813.000   4.11293052e+01
  2813.500   4.11108164e+01
  2814.000   4.10923712e+01
  2814.500   4.10739694e+01
  2815.000   4.10556111e+01
  2815.500   4.10372964e+01
  2816.000   4.10190253e+01
  2816.500   4.10007978e+01
  2817.000   4.09826140e+01
  2817.500   4.09644740e+01
  2818.000   4.09463778e+01
  2818.500   4.09283254e+01
  2819.000   4.09103169e+01
  2819.500   4.08923523e+01
  2820.000   4.08744317e+01
  2820.500   4.08565551e+01
  2821.000   4.08387226e+01
  2821.500   4.08209342e+01
  2822.000   4.08031900e+01
  2822.500   4.07854900e+01
  2823.000   4.07678343e+01
  2823.500   4.07502230e+01
  2824.000   4.07326560e+01
  2824.500   4.07151335e+01
  2825.000   4.06976555e+01
  2825.500   4.06802221e+01
  2826.000   4.06628332e+01
  2826.500   4.06454890e+01
  2827.000   4.06281896e+01
  2827.500   4.06109349e+01
  2828.000   4.05937251e+01
  2828.500   4.05765602e+01
  2829.000   4.05594402e+01
  2829.500   4.05423653e+01
  2830.000   4.05253354e+01
  2830.500   4.05083507e+01
  2831.000   4.04914112e+01
  2831.500   4.04745170e+01
  2832.000   4.04576681e+01
  2832.500   4.04408646e+01
  2833.000   4.04241066e+01
  2833.500   4.04073941e+01
  2834.000   4.03907272e+01
  2834.500   4.03741060e+01
  2835.000   4.03575305e+01
  2835.500   4.03410008e+01
  2836.000   4.03245170e+01
  2836.500   4.03080791e+01
  2837.000   4.02916873e+01
  2837.500   4.02753415e+01
  2838.000   4.02590419e+01
  2838.500   4.02427886e+01
  2839.000   4.02265815e+01
  2839.500   4.02104208e+01
  2840.000   4.01943066e+01
  2840.500   4.01782389e+01
  2841.000   4.01622179e+01
  2841.500   4.01462435e+01
  2842.000   4.01303159e+01
  2842.500   4.01144351e+01
  2843.000   4.00986013e+01
  2843.500   4.00828145e+01
  2844.000   4.00670748e+01
  2844.500   4.00513822e+01
  2845.000   4.00357369e+01
  2845.500   4.00201390e+01
  2846.000   4.00045885e+01
  2846.500   3.99890855e+01
  2847.000   3.99736301e+01
  2847.500   3.99582224e+01
  2848.000   3.99428624e+01
  2848.500   3.99275504e+01
  2849.000   3.99122863e+01
  2849.500   3.98970702e+01
  2850.000   3.98819023e+01
  2850.500   3.98667826e+01
  2851.000   3.98517113e+01
  2851.500   3.98366883e+01
  2852.000   3.98217139e+01
  2852.500   3.98067881e+01
  2853.000   3.97919110e+01
  2853.500   3.97770827e+01
  2854.000   3.97623034e+01
  2854.500   3.97475730e+01
  2855.000   3.97328918e+01
  2855.500   3.97182597e+01
  2856.000   3.97036770e+01
  2856.500   3.96891437e+01
  2857.000   3.96746599e+01
  2857.500   3.96602258e+01
  2858.000   3.96458413e+01
  2858.500   3.96315068e+01
  2859.000   3.96172222e+01
  2859.500   3.96029876e+01
  2860.000   3.95888032e+01
  2860.500   3.95746691e+01
  2861.000   3.95605854e+01
  2861.500   3.95465522e+01
  2862.000   3.95325697e+01
  2862.500   3.95186378e+01
  2863.000   3.95047569e+01
  2863.500   3.94909269e+01
  2864.000   3.94771480e+01
  2864.500   3.94634203e+01
  2865.000   3.94497440e+01
  2865.500   3.94361191e+01
  2866.000   3.94225458e+01
  2866.500   3.94090242e+01
  2867.000   3.93955544e+01
  2867.500   3.93821366e+01
  2868.000   3.93687709e+01
  2868.500   3.93554574e+01
  2869.000   3.93421962e+01
  2869.500   3.93289875e+01
  2870.000   3.93158314e+01
  2870.500   3.93027281e+01
  2871.000   3.92896776e+01
  2871.500   3.92766802e+01
  2872.000   3.92637359e+01
  2872.500   3.92508449e+01
  2873.000   3.92380073e+01
  2873.500   3.92252232e+01
  2874.000   3.92124929e+01
  2874.500   3.91998164e+01
  2875.000   3.91871940e+01
  2875.500   3.91746256e+01
  2876.000   3.91621116e+01
  2876.500   3.91496520e+01
  2877.000   3.91372469e+01
  2877.500   3.91248966e+01
  2878.000   3.91126012e+01
  2878.500   3.91003609e+01
  2879.000   3.90881757e+01
  2879.500   3.90760459e+01
  2880.000   3.90639716e+01
  2880.500   3.90519529e+01
  2881.000   3.90399901e+01
  2881.500   3.90280833e+01
  2882.000   3.90162326e+01
  2882.500   3.90044382e+01
  2883.000   3.89927003e+01
  2883.500   3.89810191e+01
  2884.000   3.89693946e+01
  2884.500   3.89578272e+01
  2885.000   3.89463169e+01
  2885.500   3.89348639e+01
  2886.000   3.89234685e+01
  2886.500   3.89121307e+01
  2887.000   3.89008508e+01
  2887.500   3.88896289e+01
  2888.000   3.88784652e+01
  2888.500   3.88673599e+01
  2889.000   3.88563132e+01
  2889.500   3.88453253e+01
  2890.000   3.88343963e+01
  2890.500   3.88235264e+01
  2891.000   3.88127159e+01
  2891.500   3.88019649e+01
  2892.000   3.87912736e+01
  2892.500   3.87806422e+01
  2893.000   3.87700709e+01
  2893.500   3.87595599e+01
  2894.000   3.87491094e+01
  2894.500   3.87387196e+01
  2895.000   3.87283907e+01
  2895.500   3.87181229e+01
  2896.000   3.87079164e+01
  2896.500   3.86977715e+01
  2897.000   3.86876883e+01
  2897.500   3.86776670e+01
  2898.000   3.86677079e+01
  2898.500   3.86578111e+01
  2899.000   3.86479770e+01
  2899.500   3.86382056e+01
  2900.000   3.86284973e+01
  2900.500   3.86188522e+01
  2901.000   3.86092706e+01
  2901.500   3.85997527e+01
  2902.000   3.85902987e+01
  2902.500   3.85809089e+01
  2903.000   3.85715834e+01
  2903.500   3.85623226e+01
  2904.000   3.85531267e+01
  2904.500   3.85439958e+01
  2905.000   3.85349303e+01
  2905.500   3.85259304e+01
  2906.000   3.85169963e+01
  2906.500   3.85081282e+01
  2907.000   3.84993265e+01
  2907.500   3.84905913e+01
  2908.000   3.84819230e+01
  2908.500   3.84733217e+01
  2909.000   3.84647878e+01
  2909.500   3.84563215e+01
  2910.000   3.84479230e+01
  2910.500   3.84395926e+01
  2911.000   3.84313307e+01
  2911.500   3.84231373e+01
  2912.000   3.84150129e+01
  2912.500   3.84069577e+01
  2913.000   3.83989719e+01
  2913.500   3.83910559e+01
  2914.000   3.83832099e+01
  2914.500   3.83754342e+01
  2915.000   3.83677291e+01
  2915.500   3.83600949e+01
  2916.000   3.83525318e+01
  2916.500   3.83450402e+01
  2917.000   3.83376203e+01
  2917.500   3.83302725e+01
  2918.000   3.83229970e+01
  2918.500   3.83157942e+01
  2919.000   3.83086643e+01
  2919.500   3.83016077e+01
  2920.000   3.82946246e+01
  2920.500   3.82877154e+01
  2921.000   3.82808804e+01
  2921.500   3.82741200e+01
  2922.000   3.82674343e+01
  2922.500   3.82608238e+01
  2923.000   3.82542888e+01
  2923.500   3.82478295e+01
  2924.000   3.82414465e+01
  2924.500   3.82351398e+01
  2925.000   3.82289100e+01
  2925.500   3.82227574e+01
  2926.000   3.82166822e+01
  2926.500   3.82106849e+01
  2927.000   3.82047657e+01
  2927.500   3.81989251e+01
  2928.000   3.81931633e+01
  2928.500   3.81874808e+01
  2929.000   3.81818780e+01
  2929.500   3.81763551e+01
  2930.000   3.81709125e+01
  2930.500   3.81655506e+01
  2931.000   3.81602698e+01
  2931.500   3.81550705e+01
  2932.000   3.81499530e+01
  2932.500   3.81449177e+01
  2933.000   3.81399651e+01
  2933.500   3.81350954e+01
  2934.000   3.81303091e+01
  2934.500   3.81256066e+01
  2935.000   3.81209883e+01
  2935.500   3.81164546e+01
  2936.000   3.81120059e+01
  2936.500   3.81076426e+01
  2937.000   3.81033651e+01
  2937.500   3.80991738e+01
  2938.000   3.80950692e+01
  2938.500   3.80910517e+01
  2939.000   3.80871217e+01
  2939.500   3.80832797e+01
  2940.000   3.80795260e+01
  2940.500   3.80758612e+01
  2941.000   3.80722856e+01
  2941.500   3.80687998e+01
  2942.000   3.80654041e+01
  2942.500   3.80620990e+01
  2943.000   3.80588851e+01
  2943.500   3.80557626e+01
  2944.000   3.80527322e+01
  2944.500   3.80497943e+01
  2945.000   3.80469493e+01
  2945.500   3.80441978e+01
  2946.000   3.80415402e+01
  2946.500   3.80389771e+01
  2947.000   3.80365088e+01
  2947.500   3.80341360e+01
  2948.000   3.80318590e+01
  2948.500   3.80296785e+01
  2949.000   3.80275950e+01
  2949.500   3.80256089e+01
  2950.000   3.80237207e+01
  2950.500   3.80219311e+01
  2951.000   3.80202404e+01
  2951.500   3.80186494e+01
  2952.000   3.80171584e+01
  2952.500   3.80157681e+01
  2953.000   3.80144790e+01
  2953.500   3.80132916e+01
  2954.000   3.80122065e+01
  2954.500   3.80112243e+01
  2955.000   3.80103456e+01
  2955.500   3.80095709e+01
  2956.000   3.80089007e+01
  2956.500   3.80083358e+01
  2957.000   3.80078766e+01
  2957.500   3.80075238e+01
  2958.000   3.80072780e+01
  2958.500   3.80071398e+01
  2959.000   3.80071097e+01
  2959.500   3.80071885e+01
  2960.000   3.80073767e+01
  2960.500   3.80076749e+01
  2961.000   3.80080839e+01
  2961.500   3.80086042e+01
  2962.000   3.80092365e+01
  2962.500   3.80099814e+01
  2963.000   3.80108397e+01
  2963.500   3.80118119e+01
  2964.000   3.80128988e+01
  2964.500   3.80141009e+01
  2965.000   3.80154191e+01
  2965.500   3.80168540e+01
  2966.000   3.80184062e+01
  2966.500   3.80200766e+01
  2967.000   3.80218657e+01
  2967.500   3.80237744e+01
  2968.000   3.80258033e+01
  2968.500   3.80279532e+01
  2969.000   3.80302248e+01
  2969.500   3.80326189e+01
  2970.000   3.80351362e+01
  2970.500   3.80377774e+01
  2971.000   3.80405434e+01
  2971.500   3.80434349e+01
  2972.000   3.80464526e+01
  2972.500   3.80495975e+01
  2973.000   3.80528702e+01
  2973.500   3.80562715e+01
  2974.000   3.80598024e+01
  2974.500   3.80634636e+01
  2975.000   3.80672558e+01
  2975.500   3.80711801e+01
  2976.000   3.80752371e+01
  2976.500   3.80794278e+01
  2977.000   3.80837531e+01
  2977.500   3.80882136e+01
  2978.000   3.80928105e+01
  2978.500   3.80975445e+01
  2979.000   3.81024165e+01
  2979.500   3.81074274e+01
  2980.000   3.81125782e+01
  2980.500   3.81178697e+01
  2981.000   3.81233029e+01
  2981.500   3.81288788e+01
  2982.000   3.81345982e+01
  2982.500   3.81404621e+01
  2983.000   3.81464715e+01
  2983.500   3.81526274e+01
  2984.000   3.81589307e+01
  2984.500   3.81653825e+01
  2985.000   3.81719837e+01
  2985.500   3.81787353e+01
  2986.000   3.81856384e+01
  2986.500   3.81926941e+01
  2987.000   3.81999033e+01
  2987.500   3.82072671e+01
  2988.000   3.82147865e+01
  2988.500   3.82224628e+01
  2989.000   3.82302968e+01
  2989.500   3.82382898e+01
  2990.000   3.82464428e+01
  2990.500   3.82547570e+01
  2991.000   3.82632335e+01
  2991.500   3.82718734e+01
  2992.000   3.82806779e+01
  2992.500   3.82896481e+01
  2993.000   3.82987853e+01
  2993.500   3.83080906e+01
  2994.000   3.83175652e+01
  2994.500   3.83272103e+01
  2995.000   3.83370272e+01
  2995.500   3.83470171e+01
  2996.000   3.83571812e+01
  2996.500   3.83675209e+01
  2997.000   3.83780373e+01
  2997.500   3.83887319e+01
  2998.000   3.83996058e+01
  2998.500   3.84106604e+01
  2999.000   3.84218971e+01
  2999.500   3.84333171e+01
