# # Created with Intravib version 0.0.9g 
# # Total reorganization energy:  1335.794805 cm^-1
     0.000   0.00000000e+00
     0.500   7.14734045e-03
     1.000   1.43122862e-02
     1.500   2.14948993e-02
     2.000   2.86952420e-02
     2.500   3.59133769e-02
     3.000   4.31493672e-02
     3.500   5.04032763e-02
     4.000   5.76751678e-02
     4.500   6.49651061e-02
     5.000   7.22731555e-02
     5.500   7.95993810e-02
     6.000   8.69438479e-02
     6.500   9.43066219e-02
     7.000   1.01687769e-01
     7.500   1.09087356e-01
     8.000   1.16505449e-01
     8.500   1.23942116e-01
     9.000   1.31397424e-01
     9.500   1.38871441e-01
    10.000   1.46364237e-01
    10.500   1.53875879e-01
    11.000   1.61406438e-01
    11.500   1.68955982e-01
    12.000   1.76524582e-01
    12.500   1.84112310e-01
    13.000   1.91719234e-01
    13.500   1.99345428e-01
    14.000   2.06990964e-01
    14.500   2.14655912e-01
    15.000   2.22340348e-01
    15.500   2.30044343e-01
    16.000   2.37767971e-01
    16.500   2.45511307e-01
    17.000   2.53274426e-01
    17.500   2.61057402e-01
    18.000   2.68860311e-01
    18.500   2.76683230e-01
    19.000   2.84526236e-01
    19.500   2.92389404e-01
    20.000   3.00272814e-01
    20.500   3.08176543e-01
    21.000   3.16100670e-01
    21.500   3.24045274e-01
    22.000   3.32010435e-01
    22.500   3.39996233e-01
    23.000   3.48002749e-01
    23.500   3.56030064e-01
    24.000   3.64078261e-01
    24.500   3.72147421e-01
    25.000   3.80237629e-01
    25.500   3.88348966e-01
    26.000   3.96481519e-01
    26.500   4.04635371e-01
    27.000   4.12810607e-01
    27.500   4.21007314e-01
    28.000   4.29225579e-01
    28.500   4.37465487e-01
    29.000   4.45727128e-01
    29.500   4.54010590e-01
    30.000   4.62315961e-01
    30.500   4.70643331e-01
    31.000   4.78992790e-01
    31.500   4.87364431e-01
    32.000   4.95758343e-01
    32.500   5.04174619e-01
    33.000   5.12613353e-01
    33.500   5.21074638e-01
    34.000   5.29558568e-01
    34.500   5.38065238e-01
    35.000   5.46594745e-01
    35.500   5.55147183e-01
    36.000   5.63722652e-01
    36.500   5.72321247e-01
    37.000   5.80943069e-01
    37.500   5.89588217e-01
    38.000   5.98256790e-01
    38.500   6.06948889e-01
    39.000   6.15664617e-01
    39.500   6.24404075e-01
    40.000   6.33167368e-01
    40.500   6.41954598e-01
    41.000   6.50765872e-01
    41.500   6.59601294e-01
    42.000   6.68460971e-01
    42.500   6.77345011e-01
    43.000   6.86253521e-01
    43.500   6.95186612e-01
    44.000   7.04144393e-01
    44.500   7.13126974e-01
    45.000   7.22134468e-01
    45.500   7.31166988e-01
    46.000   7.40224646e-01
    46.500   7.49307559e-01
    47.000   7.58415840e-01
    47.500   7.67549607e-01
    48.000   7.76708977e-01
    48.500   7.85894069e-01
    49.000   7.95105002e-01
    49.500   8.04341896e-01
    50.000   8.13604874e-01
    50.500   8.22894057e-01
    51.000   8.32209569e-01
    51.500   8.41551535e-01
    52.000   8.50920080e-01
    52.500   8.60315332e-01
    53.000   8.69737419e-01
    53.500   8.79186469e-01
    54.000   8.88662612e-01
    54.500   8.98165981e-01
    55.000   9.07696708e-01
    55.500   9.17254926e-01
    56.000   9.26840771e-01
    56.500   9.36454379e-01
    57.000   9.46095887e-01
    57.500   9.55765434e-01
    58.000   9.65463159e-01
    58.500   9.75189206e-01
    59.000   9.84943715e-01
    59.500   9.94726831e-01
    60.000   1.00453870e+00
    60.500   1.01437947e+00
    61.000   1.02424928e+00
    61.500   1.03414829e+00
    62.000   1.04407665e+00
    62.500   1.05403451e+00
    63.000   1.06402202e+00
    63.500   1.07403934e+00
    64.000   1.08408663e+00
    64.500   1.09416405e+00
    65.000   1.10427174e+00
    65.500   1.11440989e+00
    66.000   1.12457864e+00
    66.500   1.13477817e+00
    67.000   1.14500864e+00
    67.500   1.15527022e+00
    68.000   1.16556308e+00
    68.500   1.17588739e+00
    69.000   1.18624332e+00
    69.500   1.19663105e+00
    70.000   1.20705077e+00
    70.500   1.21750263e+00
    71.000   1.22798684e+00
    71.500   1.23850356e+00
    72.000   1.24905299e+00
    72.500   1.25963531e+00
    73.000   1.27025071e+00
    73.500   1.28089939e+00
    74.000   1.29158152e+00
    74.500   1.30229732e+00
    75.000   1.31304697e+00
    75.500   1.32383068e+00
    76.000   1.33464864e+00
    76.500   1.34550106e+00
    77.000   1.35638816e+00
    77.500   1.36731012e+00
    78.000   1.37826718e+00
    78.500   1.38925953e+00
    79.000   1.40028740e+00
    79.500   1.41135100e+00
    80.000   1.42245055e+00
    80.500   1.43358628e+00
    81.000   1.44475842e+00
    81.500   1.45596718e+00
    82.000   1.46721281e+00
    82.500   1.47849554e+00
    83.000   1.48981559e+00
    83.500   1.50117322e+00
    84.000   1.51256867e+00
    84.500   1.52400218e+00
    85.000   1.53547400e+00
    85.500   1.54698437e+00
    86.000   1.55853357e+00
    86.500   1.57012183e+00
    87.000   1.58174944e+00
    87.500   1.59341664e+00
    88.000   1.60512370e+00
    88.500   1.61687091e+00
    89.000   1.62865852e+00
    89.500   1.64048683e+00
    90.000   1.65235610e+00
    90.500   1.66426663e+00
    91.000   1.67621871e+00
    91.500   1.68821263e+00
    92.000   1.70024868e+00
    92.500   1.71232716e+00
    93.000   1.72444839e+00
    93.500   1.73661266e+00
    94.000   1.74882029e+00
    94.500   1.76107160e+00
    95.000   1.77336691e+00
    95.500   1.78570655e+00
    96.000   1.79809083e+00
    96.500   1.81052011e+00
    97.000   1.82299471e+00
    97.500   1.83551498e+00
    98.000   1.84808128e+00
    98.500   1.86069394e+00
    99.000   1.87335334e+00
    99.500   1.88605984e+00
   100.000   1.89881379e+00
   100.500   1.91161559e+00
   101.000   1.92446560e+00
   101.500   1.93736422e+00
   102.000   1.95031183e+00
   102.500   1.96330882e+00
   103.000   1.97635561e+00
   103.500   1.98945260e+00
   104.000   2.00260020e+00
   104.500   2.01579883e+00
   105.000   2.02904892e+00
   105.500   2.04235090e+00
   106.000   2.05570522e+00
   106.500   2.06911231e+00
   107.000   2.08257263e+00
   107.500   2.09608664e+00
   108.000   2.10965480e+00
   108.500   2.12327760e+00
   109.000   2.13695551e+00
   109.500   2.15068902e+00
   110.000   2.16447862e+00
   110.500   2.17832483e+00
   111.000   2.19222815e+00
   111.500   2.20618910e+00
   112.000   2.22020822e+00
   112.500   2.23428603e+00
   113.000   2.24842310e+00
   113.500   2.26261996e+00
   114.000   2.27687719e+00
   114.500   2.29119536e+00
   115.000   2.30557505e+00
   115.500   2.32001685e+00
   116.000   2.33452137e+00
   116.500   2.34908922e+00
   117.000   2.36372102e+00
   117.500   2.37841740e+00
   118.000   2.39317901e+00
   118.500   2.40800651e+00
   119.000   2.42290055e+00
   119.500   2.43786182e+00
   120.000   2.45289101e+00
   120.500   2.46798882e+00
   121.000   2.48315596e+00
   121.500   2.49839316e+00
   122.000   2.51370116e+00
   122.500   2.52908071e+00
   123.000   2.54453258e+00
   123.500   2.56005754e+00
   124.000   2.57565640e+00
   124.500   2.59132995e+00
   125.000   2.60707903e+00
   125.500   2.62290447e+00
   126.000   2.63880712e+00
   126.500   2.65478785e+00
   127.000   2.67084756e+00
   127.500   2.68698713e+00
   128.000   2.70320749e+00
   128.500   2.71950958e+00
   129.000   2.73589435e+00
   129.500   2.75236277e+00
   130.000   2.76891583e+00
   130.500   2.78555455e+00
   131.000   2.80227994e+00
   131.500   2.81909305e+00
   132.000   2.83599497e+00
   132.500   2.85298676e+00
   133.000   2.87006955e+00
   133.500   2.88724447e+00
   134.000   2.90451267e+00
   134.500   2.92187532e+00
   135.000   2.93933363e+00
   135.500   2.95688881e+00
   136.000   2.97454212e+00
   136.500   2.99229482e+00
   137.000   3.01014821e+00
   137.500   3.02810362e+00
   138.000   3.04616239e+00
   138.500   3.06432590e+00
   139.000   3.08259555e+00
   139.500   3.10097277e+00
   140.000   3.11945902e+00
   140.500   3.13805579e+00
   141.000   3.15676460e+00
   141.500   3.17558699e+00
   142.000   3.19452455e+00
   142.500   3.21357889e+00
   143.000   3.23275165e+00
   143.500   3.25204451e+00
   144.000   3.27145919e+00
   144.500   3.29099743e+00
   145.000   3.31066101e+00
   145.500   3.33045175e+00
   146.000   3.35037151e+00
   146.500   3.37042217e+00
   147.000   3.39060568e+00
   147.500   3.41092400e+00
   148.000   3.43137914e+00
   148.500   3.45197316e+00
   149.000   3.47270815e+00
   149.500   3.49358625e+00
   150.000   3.51460963e+00
   150.500   3.53578052e+00
   151.000   3.55710120e+00
   151.500   3.57857397e+00
   152.000   3.60020120e+00
   152.500   3.62198531e+00
   153.000   3.64392875e+00
   153.500   3.66603402e+00
   154.000   3.68830370e+00
   154.500   3.71074039e+00
   155.000   3.73334676e+00
   155.500   3.75612552e+00
   156.000   3.77907944e+00
   156.500   3.80221135e+00
   157.000   3.82552413e+00
   157.500   3.84902072e+00
   158.000   3.87270411e+00
   158.500   3.89657736e+00
   159.000   3.92064358e+00
   159.500   3.94490594e+00
   160.000   3.96936768e+00
   160.500   3.99403208e+00
   161.000   4.01890250e+00
   161.500   4.04398236e+00
   162.000   4.06927514e+00
   162.500   4.09478437e+00
   163.000   4.12051367e+00
   163.500   4.14646671e+00
   164.000   4.17264721e+00
   164.500   4.19905897e+00
   165.000   4.22570586e+00
   165.500   4.25259179e+00
   166.000   4.27972077e+00
   166.500   4.30709683e+00
   167.000   4.33472410e+00
   167.500   4.36260674e+00
   168.000   4.39074900e+00
   168.500   4.41915518e+00
   169.000   4.44782964e+00
   169.500   4.47677678e+00
   170.000   4.50600108e+00
   170.500   4.53550707e+00
   171.000   4.56529932e+00
   171.500   4.59538247e+00
   172.000   4.62576119e+00
   172.500   4.65644019e+00
   173.000   4.68742423e+00
   173.500   4.71871813e+00
   174.000   4.75032669e+00
   174.500   4.78225478e+00
   175.000   4.81450729e+00
   175.500   4.84708910e+00
   176.000   4.88000514e+00
   176.500   4.91326032e+00
   177.000   4.94685954e+00
   177.500   4.98080772e+00
   178.000   5.01510974e+00
   178.500   5.04977045e+00
   179.000   5.08479469e+00
   179.500   5.12018723e+00
   180.000   5.15595278e+00
   180.500   5.19209598e+00
   181.000   5.22862140e+00
   181.500   5.26553350e+00
   182.000   5.30283663e+00
   182.500   5.34053502e+00
   183.000   5.37863273e+00
   183.500   5.41713367e+00
   184.000   5.45604159e+00
   184.500   5.49535999e+00
   185.000   5.53509218e+00
   185.500   5.57524121e+00
   186.000   5.61580986e+00
   186.500   5.65680060e+00
   187.000   5.69821560e+00
   187.500   5.74005666e+00
   188.000   5.78232520e+00
   188.500   5.82502223e+00
   189.000   5.86814832e+00
   189.500   5.91170354e+00
   190.000   5.95568746e+00
   190.500   6.00009912e+00
   191.000   6.04493694e+00
   191.500   6.09019873e+00
   192.000   6.13588164e+00
   192.500   6.18198209e+00
   193.000   6.22849577e+00
   193.500   6.27541757e+00
   194.000   6.32274156e+00
   194.500   6.37046092e+00
   195.000   6.41856790e+00
   195.500   6.46705378e+00
   196.000   6.51590886e+00
   196.500   6.56512235e+00
   197.000   6.61468238e+00
   197.500   6.66457592e+00
   198.000   6.71478879e+00
   198.500   6.76530557e+00
   199.000   6.81610958e+00
   199.500   6.86718286e+00
   200.000   6.91850612e+00
   200.500   6.97005873e+00
   201.000   7.02181868e+00
   201.500   7.07376257e+00
   202.000   7.12586559e+00
   202.500   7.17810154e+00
   203.000   7.23044277e+00
   203.500   7.28286024e+00
   204.000   7.33532353e+00
   204.500   7.38780080e+00
   205.000   7.44025892e+00
   205.500   7.49266340e+00
   206.000   7.54497851e+00
   206.500   7.59716731e+00
   207.000   7.64919175e+00
   207.500   7.70101266e+00
   208.000   7.75258997e+00
   208.500   7.80388267e+00
   209.000   7.85484904e+00
   209.500   7.90544668e+00
   210.000   7.95563269e+00
   210.500   8.00536380e+00
   211.000   8.05459651e+00
   211.500   8.10328725e+00
   212.000   8.15139255e+00
   212.500   8.19886921e+00
   213.000   8.24567450e+00
   213.500   8.29176629e+00
   214.000   8.33710331e+00
   214.500   8.38164527e+00
   215.000   8.42535310e+00
   215.500   8.46818911e+00
   216.000   8.51011721e+00
   216.500   8.55110304e+00
   217.000   8.59111420e+00
   217.500   8.63012038e+00
   218.000   8.66809354e+00
   218.500   8.70500807e+00
   219.000   8.74084090e+00
   219.500   8.77557162e+00
   220.000   8.80918264e+00
   220.500   8.84165921e+00
   221.000   8.87298956e+00
   221.500   8.90316490e+00
   222.000   8.93217953e+00
   222.500   8.96003077e+00
   223.000   8.98671904e+00
   223.500   9.01224782e+00
   224.000   9.03662360e+00
   224.500   9.05985582e+00
   225.000   9.08195685e+00
   225.500   9.10294185e+00
   226.000   9.12282869e+00
   226.500   9.14163782e+00
   227.000   9.15939218e+00
   227.500   9.17611701e+00
   228.000   9.19183974e+00
   228.500   9.20658980e+00
   229.000   9.22039848e+00
   229.500   9.23329873e+00
   230.000   9.24532502e+00
   230.500   9.25651315e+00
   231.000   9.26690006e+00
   231.500   9.27652367e+00
   232.000   9.28542270e+00
   232.500   9.29363650e+00
   233.000   9.30120489e+00
   233.500   9.30816797e+00
   234.000   9.31456603e+00
   234.500   9.32043932e+00
   235.000   9.32582798e+00
   235.500   9.33077187e+00
   236.000   9.33531046e+00
   236.500   9.33948274e+00
   237.000   9.34332706e+00
   237.500   9.34688108e+00
   238.000   9.35018170e+00
   238.500   9.35326491e+00
   239.000   9.35616581e+00
   239.500   9.35891850e+00
   240.000   9.36155604e+00
   240.500   9.36411043e+00
   241.000   9.36661253e+00
   241.500   9.36909208e+00
   242.000   9.37157768e+00
   242.500   9.37409672e+00
   243.000   9.37667546e+00
   243.500   9.37933895e+00
   244.000   9.38211109e+00
   244.500   9.38501460e+00
   245.000   9.38807106e+00
   245.500   9.39130092e+00
   246.000   9.39472351e+00
   246.500   9.39835707e+00
   247.000   9.40221878e+00
   247.500   9.40632477e+00
   248.000   9.41069018e+00
   248.500   9.41532917e+00
   249.000   9.42025494e+00
   249.500   9.42547981e+00
   250.000   9.43101519e+00
   250.500   9.43687166e+00
   251.000   9.44305900e+00
   251.500   9.44958621e+00
   252.000   9.45646155e+00
   252.500   9.46369257e+00
   253.000   9.47128616e+00
   253.500   9.47924857e+00
   254.000   9.48758543e+00
   254.500   9.49630181e+00
   255.000   9.50540224e+00
   255.500   9.51489072e+00
   256.000   9.52477080e+00
   256.500   9.53504554e+00
   257.000   9.54571759e+00
   257.500   9.55678920e+00
   258.000   9.56826224e+00
   258.500   9.58013824e+00
   259.000   9.59241839e+00
   259.500   9.60510359e+00
   260.000   9.61819443e+00
   260.500   9.63169128e+00
   261.000   9.64559423e+00
   261.500   9.65990316e+00
   262.000   9.67461775e+00
   262.500   9.68973748e+00
   263.000   9.70526167e+00
   263.500   9.72118946e+00
   264.000   9.73751986e+00
   264.500   9.75425176e+00
   265.000   9.77138392e+00
   265.500   9.78891499e+00
   266.000   9.80684353e+00
   266.500   9.82516802e+00
   267.000   9.84388686e+00
   267.500   9.86299841e+00
   268.000   9.88250093e+00
   268.500   9.90239268e+00
   269.000   9.92267185e+00
   269.500   9.94333662e+00
   270.000   9.96438512e+00
   270.500   9.98581549e+00
   271.000   1.00076258e+01
   271.500   1.00298143e+01
   272.000   1.00523789e+01
   272.500   1.00753178e+01
   273.000   1.00986291e+01
   273.500   1.01223110e+01
   274.000   1.01463615e+01
   274.500   1.01707789e+01
   275.000   1.01955613e+01
   275.500   1.02207070e+01
   276.000   1.02462141e+01
   276.500   1.02720810e+01
   277.000   1.02983059e+01
   277.500   1.03248872e+01
   278.000   1.03518232e+01
   278.500   1.03791124e+01
   279.000   1.04067532e+01
   279.500   1.04347442e+01
   280.000   1.04630837e+01
   280.500   1.04917706e+01
   281.000   1.05208032e+01
   281.500   1.05501805e+01
   282.000   1.05799010e+01
   282.500   1.06099635e+01
   283.000   1.06403669e+01
   283.500   1.06711100e+01
   284.000   1.07021917e+01
   284.500   1.07336111e+01
   285.000   1.07653672e+01
   285.500   1.07974589e+01
   286.000   1.08298856e+01
   286.500   1.08626462e+01
   287.000   1.08957402e+01
   287.500   1.09291667e+01
   288.000   1.09629251e+01
   288.500   1.09970148e+01
   289.000   1.10314352e+01
   289.500   1.10661860e+01
   290.000   1.11012664e+01
   290.500   1.11366764e+01
   291.000   1.11724153e+01
   291.500   1.12084831e+01
   292.000   1.12448794e+01
   292.500   1.12816040e+01
   293.000   1.13186569e+01
   293.500   1.13560380e+01
   294.000   1.13937472e+01
   294.500   1.14317846e+01
   295.000   1.14701502e+01
   295.500   1.15088442e+01
   296.000   1.15478667e+01
   296.500   1.15872181e+01
   297.000   1.16268986e+01
   297.500   1.16669085e+01
   298.000   1.17072482e+01
   298.500   1.17479182e+01
   299.000   1.17889190e+01
   299.500   1.18302510e+01
   300.000   1.18719150e+01
   300.500   1.19139115e+01
   301.000   1.19562412e+01
   301.500   1.19989049e+01
   302.000   1.20419034e+01
   302.500   1.20852375e+01
   303.000   1.21289081e+01
   303.500   1.21729161e+01
   304.000   1.22172626e+01
   304.500   1.22619485e+01
   305.000   1.23069750e+01
   305.500   1.23523432e+01
   306.000   1.23980543e+01
   306.500   1.24441095e+01
   307.000   1.24905101e+01
   307.500   1.25372574e+01
   308.000   1.25843529e+01
   308.500   1.26317979e+01
   309.000   1.26795940e+01
   309.500   1.27277425e+01
   310.000   1.27762453e+01
   310.500   1.28251038e+01
   311.000   1.28743197e+01
   311.500   1.29238948e+01
   312.000   1.29738308e+01
   312.500   1.30241296e+01
   313.000   1.30747930e+01
   313.500   1.31258229e+01
   314.000   1.31772214e+01
   314.500   1.32289905e+01
   315.000   1.32811322e+01
   315.500   1.33336487e+01
   316.000   1.33865421e+01
   316.500   1.34398147e+01
   317.000   1.34934687e+01
   317.500   1.35475065e+01
   318.000   1.36019305e+01
   318.500   1.36567431e+01
   319.000   1.37119468e+01
   319.500   1.37675442e+01
   320.000   1.38235378e+01
   320.500   1.38799304e+01
   321.000   1.39367245e+01
   321.500   1.39939231e+01
   322.000   1.40515288e+01
   322.500   1.41095447e+01
   323.000   1.41679735e+01
   323.500   1.42268184e+01
   324.000   1.42860824e+01
   324.500   1.43457686e+01
   325.000   1.44058801e+01
   325.500   1.44664201e+01
   326.000   1.45273921e+01
   326.500   1.45887993e+01
   327.000   1.46506451e+01
   327.500   1.47129330e+01
   328.000   1.47756666e+01
   328.500   1.48388495e+01
   329.000   1.49024853e+01
   329.500   1.49665777e+01
   330.000   1.50311306e+01
   330.500   1.50961479e+01
   331.000   1.51616334e+01
   331.500   1.52275912e+01
   332.000   1.52940254e+01
   332.500   1.53609400e+01
   333.000   1.54283394e+01
   333.500   1.54962278e+01
   334.000   1.55646095e+01
   334.500   1.56334891e+01
   335.000   1.57028710e+01
   335.500   1.57727599e+01
   336.000   1.58431604e+01
   336.500   1.59140772e+01
   337.000   1.59855152e+01
   337.500   1.60574793e+01
   338.000   1.61299745e+01
   338.500   1.62030059e+01
   339.000   1.62765786e+01
   339.500   1.63506979e+01
   340.000   1.64253692e+01
   340.500   1.65005978e+01
   341.000   1.65763894e+01
   341.500   1.66527494e+01
   342.000   1.67296837e+01
   342.500   1.68071980e+01
   343.000   1.68852982e+01
   343.500   1.69639903e+01
   344.000   1.70432805e+01
   344.500   1.71231749e+01
   345.000   1.72036798e+01
   345.500   1.72848017e+01
   346.000   1.73665470e+01
   346.500   1.74489225e+01
   347.000   1.75319347e+01
   347.500   1.76155907e+01
   348.000   1.76998973e+01
   348.500   1.77848616e+01
   349.000   1.78704909e+01
   349.500   1.79567924e+01
   350.000   1.80437737e+01
   350.500   1.81314422e+01
   351.000   1.82198057e+01
   351.500   1.83088720e+01
   352.000   1.83986491e+01
   352.500   1.84891451e+01
   353.000   1.85803681e+01
   353.500   1.86723267e+01
   354.000   1.87650292e+01
   354.500   1.88584844e+01
   355.000   1.89527011e+01
   355.500   1.90476883e+01
   356.000   1.91434549e+01
   356.500   1.92400104e+01
   357.000   1.93373642e+01
   357.500   1.94355257e+01
   358.000   1.95345049e+01
   358.500   1.96343117e+01
   359.000   1.97349560e+01
   359.500   1.98364483e+01
   360.000   1.99387989e+01
   360.500   2.00420185e+01
   361.000   2.01461180e+01
   361.500   2.02511082e+01
   362.000   2.03570006e+01
   362.500   2.04638063e+01
   363.000   2.05715371e+01
   363.500   2.06802048e+01
   364.000   2.07898213e+01
   364.500   2.09003989e+01
   365.000   2.10119501e+01
   365.500   2.11244876e+01
   366.000   2.12380241e+01
   366.500   2.13525729e+01
   367.000   2.14681473e+01
   367.500   2.15847610e+01
   368.000   2.17024278e+01
   368.500   2.18211617e+01
   369.000   2.19409772e+01
   369.500   2.20618889e+01
   370.000   2.21839116e+01
   370.500   2.23070605e+01
   371.000   2.24313512e+01
   371.500   2.25567992e+01
   372.000   2.26834206e+01
   372.500   2.28112317e+01
   373.000   2.29402491e+01
   373.500   2.30704898e+01
   374.000   2.32019709e+01
   374.500   2.33347101e+01
   375.000   2.34687252e+01
   375.500   2.36040345e+01
   376.000   2.37406565e+01
   376.500   2.38786100e+01
   377.000   2.40179145e+01
   377.500   2.41585895e+01
   378.000   2.43006550e+01
   378.500   2.44441314e+01
   379.000   2.45890396e+01
   379.500   2.47354006e+01
   380.000   2.48832360e+01
   380.500   2.50325680e+01
   381.000   2.51834188e+01
   381.500   2.53358113e+01
   382.000   2.54897688e+01
   382.500   2.56453150e+01
   383.000   2.58024743e+01
   383.500   2.59612711e+01
   384.000   2.61217308e+01
   384.500   2.62838789e+01
   385.000   2.64477416e+01
   385.500   2.66133455e+01
   386.000   2.67807178e+01
   386.500   2.69498863e+01
   387.000   2.71208793e+01
   387.500   2.72937254e+01
   388.000   2.74684542e+01
   388.500   2.76450955e+01
   389.000   2.78236801e+01
   389.500   2.80042389e+01
   390.000   2.81868039e+01
   390.500   2.83714075e+01
   391.000   2.85580827e+01
   391.500   2.87468632e+01
   392.000   2.89377835e+01
   392.500   2.91308787e+01
   393.000   2.93261845e+01
   393.500   2.95237374e+01
   394.000   2.97235748e+01
   394.500   2.99257345e+01
   395.000   3.01302554e+01
   395.500   3.03371769e+01
   396.000   3.05465394e+01
   396.500   3.07583840e+01
   397.000   3.09727526e+01
   397.500   3.11896880e+01
   398.000   3.14092339e+01
   398.500   3.16314347e+01
   399.000   3.18563360e+01
   399.500   3.20839839e+01
   400.000   3.23144258e+01
   400.500   3.25477098e+01
   401.000   3.27838851e+01
   401.500   3.30230017e+01
   402.000   3.32651109e+01
   402.500   3.35102646e+01
   403.000   3.37585160e+01
   403.500   3.40099194e+01
   404.000   3.42645300e+01
   404.500   3.45224041e+01
   405.000   3.47835991e+01
   405.500   3.50481737e+01
   406.000   3.53161874e+01
   406.500   3.55877012e+01
   407.000   3.58627770e+01
   407.500   3.61414779e+01
   408.000   3.64238683e+01
   408.500   3.67100139e+01
   409.000   3.69999814e+01
   409.500   3.72938388e+01
   410.000   3.75916554e+01
   410.500   3.78935018e+01
   411.000   3.81994498e+01
   411.500   3.85095725e+01
   412.000   3.88239443e+01
   412.500   3.91426409e+01
   413.000   3.94657392e+01
   413.500   3.97933177e+01
   414.000   4.01254559e+01
   414.500   4.04622347e+01
   415.000   4.08037364e+01
   415.500   4.11500446e+01
   416.000   4.15012441e+01
   416.500   4.18574210e+01
   417.000   4.22186629e+01
   417.500   4.25850584e+01
   418.000   4.29566974e+01
   418.500   4.33336712e+01
   419.000   4.37160721e+01
   419.500   4.41039938e+01
   420.000   4.44975309e+01
   420.500   4.48967792e+01
   421.000   4.53018356e+01
   421.500   4.57127980e+01
   422.000   4.61297652e+01
   422.500   4.65528369e+01
   423.000   4.69821136e+01
   423.500   4.74176967e+01
   424.000   4.78596881e+01
   424.500   4.83081903e+01
   425.000   4.87633063e+01
   425.500   4.92251394e+01
   426.000   4.96937932e+01
   426.500   5.01693714e+01
   427.000   5.06519776e+01
   427.500   5.11417152e+01
   428.000   5.16386874e+01
   428.500   5.21429966e+01
   429.000   5.26547447e+01
   429.500   5.31740325e+01
   430.000   5.37009598e+01
   430.500   5.42356247e+01
   431.000   5.47781239e+01
   431.500   5.53285521e+01
   432.000   5.58870015e+01
   432.500   5.64535622e+01
   433.000   5.70283209e+01
   433.500   5.76113614e+01
   434.000   5.82027638e+01
   434.500   5.88026040e+01
   435.000   5.94109537e+01
   435.500   6.00278795e+01
   436.000   6.06534426e+01
   436.500   6.12876984e+01
   437.000   6.19306960e+01
   437.500   6.25824772e+01
   438.000   6.32430766e+01
   438.500   6.39125205e+01
   439.000   6.45908263e+01
   439.500   6.52780023e+01
   440.000   6.59740463e+01
   440.500   6.66789455e+01
   441.000   6.73926754e+01
   441.500   6.81151993e+01
   442.000   6.88464672e+01
   442.500   6.95864153e+01
   443.000   7.03349650e+01
   443.500   7.10920221e+01
   444.000   7.18574761e+01
   444.500   7.26311989e+01
   445.000   7.34130445e+01
   445.500   7.42028477e+01
   446.000   7.50004234e+01
   446.500   7.58055656e+01
   447.000   7.66180468e+01
   447.500   7.74376167e+01
   448.000   7.82640021e+01
   448.500   7.90969054e+01
   449.000   7.99360041e+01
   449.500   8.07809505e+01
   450.000   8.16313703e+01
   450.500   8.24868627e+01
   451.000   8.33469997e+01
   451.500   8.42113256e+01
   452.000   8.50793566e+01
   452.500   8.59505809e+01
   453.000   8.68244586e+01
   453.500   8.77004215e+01
   454.000   8.85778735e+01
   454.500   8.94561908e+01
   455.000   9.03347227e+01
   455.500   9.12127921e+01
   456.000   9.20896964e+01
   456.500   9.29647086e+01
   457.000   9.38370787e+01
   457.500   9.47060350e+01
   458.000   9.55707860e+01
   458.500   9.64305221e+01
   459.000   9.72844183e+01
   459.500   9.81316357e+01
   460.000   9.89713249e+01
   460.500   9.98026283e+01
   461.000   1.00624683e+02
   461.500   1.01436626e+02
   462.000   1.02237592e+02
   462.500   1.03026726e+02
   463.000   1.03803177e+02
   463.500   1.04566109e+02
   464.000   1.05314702e+02
   464.500   1.06048157e+02
   465.000   1.06765699e+02
   465.500   1.07466580e+02
   466.000   1.08150087e+02
   466.500   1.08815541e+02
   467.000   1.09462305e+02
   467.500   1.10089784e+02
   468.000   1.10697433e+02
   468.500   1.11284756e+02
   469.000   1.11851312e+02
   469.500   1.12396714e+02
   470.000   1.12920638e+02
   470.500   1.13422818e+02
   471.000   1.13903056e+02
   471.500   1.14361214e+02
   472.000   1.14797224e+02
   472.500   1.15211081e+02
   473.000   1.15602852e+02
   473.500   1.15972666e+02
   474.000   1.16320724e+02
   474.500   1.16647288e+02
   475.000   1.16952688e+02
   475.500   1.17237316e+02
   476.000   1.17501625e+02
   476.500   1.17746127e+02
   477.000   1.17971392e+02
   477.500   1.18178040e+02
   478.000   1.18366745e+02
   478.500   1.18538226e+02
   479.000   1.18693247e+02
   479.500   1.18832612e+02
   480.000   1.18957160e+02
   480.500   1.19067764e+02
   481.000   1.19165327e+02
   481.500   1.19250774e+02
   482.000   1.19325054e+02
   482.500   1.19389131e+02
   483.000   1.19443985e+02
   483.500   1.19490605e+02
   484.000   1.19529988e+02
   484.500   1.19563133e+02
   485.000   1.19591039e+02
   485.500   1.19614705e+02
   486.000   1.19635121e+02
   486.500   1.19653273e+02
   487.000   1.19670133e+02
   487.500   1.19686662e+02
   488.000   1.19703806e+02
   488.500   1.19722497e+02
   489.000   1.19743645e+02
   489.500   1.19768144e+02
   490.000   1.19796866e+02
   490.500   1.19830661e+02
   491.000   1.19870358e+02
   491.500   1.19916762e+02
   492.000   1.19970656e+02
   492.500   1.20032797e+02
   493.000   1.20103920e+02
   493.500   1.20184732e+02
   494.000   1.20275922e+02
   494.500   1.20378148e+02
   495.000   1.20492050e+02
   495.500   1.20618240e+02
   496.000   1.20757309e+02
   496.500   1.20909825e+02
   497.000   1.21076333e+02
   497.500   1.21257356e+02
   498.000   1.21453396e+02
   498.500   1.21664935e+02
   499.000   1.21892433e+02
   499.500   1.22136332e+02
   500.000   1.22397054e+02
   500.500   1.22675002e+02
   501.000   1.22970563e+02
   501.500   1.23284105e+02
   502.000   1.23615980e+02
   502.500   1.23966523e+02
   503.000   1.24336054e+02
   503.500   1.24724877e+02
   504.000   1.25133281e+02
   504.500   1.25561540e+02
   505.000   1.26009916e+02
   505.500   1.26478653e+02
   506.000   1.26967985e+02
   506.500   1.27478130e+02
   507.000   1.28009292e+02
   507.500   1.28561665e+02
   508.000   1.29135425e+02
   508.500   1.29730737e+02
   509.000   1.30347752e+02
   509.500   1.30986607e+02
   510.000   1.31647424e+02
   510.500   1.32330312e+02
   511.000   1.33035364e+02
   511.500   1.33762659e+02
   512.000   1.34512259e+02
   512.500   1.35284210e+02
   513.000   1.36078541e+02
   513.500   1.36895265e+02
   514.000   1.37734374e+02
   514.500   1.38595844e+02
   515.000   1.39479627e+02
   515.500   1.40385657e+02
   516.000   1.41313847e+02
   516.500   1.42264084e+02
   517.000   1.43236233e+02
   517.500   1.44230135e+02
   518.000   1.45245603e+02
   518.500   1.46282422e+02
   519.000   1.47340353e+02
   519.500   1.48419122e+02
   520.000   1.49518428e+02
   520.500   1.50637936e+02
   521.000   1.51777280e+02
   521.500   1.52936057e+02
   522.000   1.54113831e+02
   522.500   1.55310128e+02
   523.000   1.56524438e+02
   523.500   1.57756211e+02
   524.000   1.59004859e+02
   524.500   1.60269754e+02
   525.000   1.61550226e+02
   525.500   1.62845566e+02
   526.000   1.64155021e+02
   526.500   1.65477799e+02
   527.000   1.66813065e+02
   527.500   1.68159942e+02
   528.000   1.69517514e+02
   528.500   1.70884822e+02
   529.000   1.72260869e+02
   529.500   1.73644621e+02
   530.000   1.75035004e+02
   530.500   1.76430912e+02
   531.000   1.77831204e+02
   531.500   1.79234708e+02
   532.000   1.80640225e+02
   532.500   1.82046530e+02
   533.000   1.83452376e+02
   533.500   1.84856499e+02
   534.000   1.86257618e+02
   534.500   1.87654444e+02
   535.000   1.89045679e+02
   535.500   1.90430026e+02
   536.000   1.91806190e+02
   536.500   1.93172885e+02
   537.000   1.94528838e+02
   537.500   1.95872797e+02
   538.000   1.97203529e+02
   538.500   1.98519837e+02
   539.000   1.99820554e+02
   539.500   2.01104556e+02
   540.000   2.02370763e+02
   540.500   2.03618146e+02
   541.000   2.04845731e+02
   541.500   2.06052603e+02
   542.000   2.07237912e+02
   542.500   2.08400874e+02
   543.000   2.09540777e+02
   543.500   2.10656981e+02
   544.000   2.11748924e+02
   544.500   2.12816119e+02
   545.000   2.13858161e+02
   545.500   2.14874719e+02
   546.000   2.15865547e+02
   546.500   2.16830474e+02
   547.000   2.17769406e+02
   547.500   2.18682324e+02
   548.000   2.19569281e+02
   548.500   2.20430402e+02
   549.000   2.21265872e+02
   549.500   2.22075941e+02
   550.000   2.22860911e+02
   550.500   2.23621139e+02
   551.000   2.24357022e+02
   551.500   2.25068999e+02
   552.000   2.25757540e+02
   552.500   2.26423139e+02
   553.000   2.27066310e+02
   553.500   2.27687579e+02
   554.000   2.28287476e+02
   554.500   2.28866530e+02
   555.000   2.29425258e+02
   555.500   2.29964165e+02
   556.000   2.30483731e+02
   556.500   2.30984409e+02
   557.000   2.31466616e+02
   557.500   2.31930730e+02
   558.000   2.32377084e+02
   558.500   2.32805962e+02
   559.000   2.33217593e+02
   559.500   2.33612149e+02
   560.000   2.33989743e+02
   560.500   2.34350424e+02
   561.000   2.34694176e+02
   561.500   2.35020921e+02
   562.000   2.35330510e+02
   562.500   2.35622733e+02
   563.000   2.35897312e+02
   563.500   2.36153907e+02
   564.000   2.36392117e+02
   564.500   2.36611483e+02
   565.000   2.36811491e+02
   565.500   2.36991575e+02
   566.000   2.37151124e+02
   566.500   2.37289485e+02
   567.000   2.37405972e+02
   567.500   2.37499866e+02
   568.000   2.37570426e+02
   568.500   2.37616896e+02
   569.000   2.37638509e+02
   569.500   2.37634497e+02
   570.000   2.37604095e+02
   570.500   2.37546554e+02
   571.000   2.37461142e+02
   571.500   2.37347156e+02
   572.000   2.37203928e+02
   572.500   2.37030829e+02
   573.000   2.36827283e+02
   573.500   2.36592764e+02
   574.000   2.36326812e+02
   574.500   2.36029029e+02
   575.000   2.35699093e+02
   575.500   2.35336754e+02
   576.000   2.34941846e+02
   576.500   2.34514285e+02
   577.000   2.34054073e+02
   577.500   2.33561299e+02
   578.000   2.33036145e+02
   578.500   2.32478880e+02
   579.000   2.31889863e+02
   579.500   2.31269545e+02
   580.000   2.30618462e+02
   580.500   2.29937238e+02
   581.000   2.29226577e+02
   581.500   2.28487267e+02
   582.000   2.27720169e+02
   582.500   2.26926217e+02
   583.000   2.26106414e+02
   583.500   2.25261825e+02
   584.000   2.24393570e+02
   584.500   2.23502824e+02
   585.000   2.22590807e+02
   585.500   2.21658780e+02
   586.000   2.20708038e+02
   586.500   2.19739905e+02
   587.000   2.18755728e+02
   587.500   2.17756873e+02
   588.000   2.16744715e+02
   588.500   2.15720637e+02
   589.000   2.14686023e+02
   589.500   2.13642253e+02
   590.000   2.12590697e+02
   590.500   2.11532714e+02
   591.000   2.10469643e+02
   591.500   2.09402806e+02
   592.000   2.08333495e+02
   592.500   2.07262979e+02
   593.000   2.06192494e+02
   593.500   2.05123241e+02
   594.000   2.04056389e+02
   594.500   2.02993067e+02
   595.000   2.01934366e+02
   595.500   2.00881335e+02
   596.000   1.99834985e+02
   596.500   1.98796281e+02
   597.000   1.97766146e+02
   597.500   1.96745462e+02
   598.000   1.95735067e+02
   598.500   1.94735754e+02
   599.000   1.93748275e+02
   599.500   1.92773340e+02
   600.000   1.91811616e+02
   600.500   1.90863731e+02
   601.000   1.89930271e+02
   601.500   1.89011785e+02
   602.000   1.88108781e+02
   602.500   1.87221733e+02
   603.000   1.86351079e+02
   603.500   1.85497220e+02
   604.000   1.84660528e+02
   604.500   1.83841339e+02
   605.000   1.83039960e+02
   605.500   1.82256671e+02
   606.000   1.81491722e+02
   606.500   1.80745336e+02
   607.000   1.80017712e+02
   607.500   1.79309025e+02
   608.000   1.78619429e+02
   608.500   1.77949053e+02
   609.000   1.77298009e+02
   609.500   1.76666391e+02
   610.000   1.76054271e+02
   610.500   1.75461710e+02
   611.000   1.74888750e+02
   611.500   1.74335420e+02
   612.000   1.73801736e+02
   612.500   1.73287701e+02
   613.000   1.72793308e+02
   613.500   1.72318538e+02
   614.000   1.71863364e+02
   614.500   1.71427749e+02
   615.000   1.71011649e+02
   615.500   1.70615014e+02
   616.000   1.70237786e+02
   616.500   1.69879902e+02
   617.000   1.69541294e+02
   617.500   1.69221889e+02
   618.000   1.68921611e+02
   618.500   1.68640381e+02
   619.000   1.68378117e+02
   619.500   1.68134733e+02
   620.000   1.67910145e+02
   620.500   1.67704265e+02
   621.000   1.67517004e+02
   621.500   1.67348273e+02
   622.000   1.67197984e+02
   622.500   1.67066048e+02
   623.000   1.66952376e+02
   623.500   1.66856881e+02
   624.000   1.66779477e+02
   624.500   1.66720079e+02
   625.000   1.66678603e+02
   625.500   1.66654968e+02
   626.000   1.66649094e+02
   626.500   1.66660904e+02
   627.000   1.66690323e+02
   627.500   1.66737279e+02
   628.000   1.66801702e+02
   628.500   1.66883526e+02
   629.000   1.66982687e+02
   629.500   1.67099126e+02
   630.000   1.67232784e+02
   630.500   1.67383608e+02
   631.000   1.67551549e+02
   631.500   1.67736560e+02
   632.000   1.67938597e+02
   632.500   1.68157623e+02
   633.000   1.68393601e+02
   633.500   1.68646502e+02
   634.000   1.68916296e+02
   634.500   1.69202963e+02
   635.000   1.69506482e+02
   635.500   1.69826840e+02
   636.000   1.70164024e+02
   636.500   1.70518031e+02
   637.000   1.70888857e+02
   637.500   1.71276506e+02
   638.000   1.71680984e+02
   638.500   1.72102303e+02
   639.000   1.72540479e+02
   639.500   1.72995533e+02
   640.000   1.73467490e+02
   640.500   1.73956381e+02
   641.000   1.74462239e+02
   641.500   1.74985105e+02
   642.000   1.75525022e+02
   642.500   1.76082039e+02
   643.000   1.76656211e+02
   643.500   1.77247595e+02
   644.000   1.77856256e+02
   644.500   1.78482262e+02
   645.000   1.79125687e+02
   645.500   1.79786609e+02
   646.000   1.80465112e+02
   646.500   1.81161284e+02
   647.000   1.81875221e+02
   647.500   1.82607020e+02
   648.000   1.83356786e+02
   648.500   1.84124629e+02
   649.000   1.84910664e+02
   649.500   1.85715012e+02
   650.000   1.86537798e+02
   650.500   1.87379154e+02
   651.000   1.88239216e+02
   651.500   1.89118127e+02
   652.000   1.90016036e+02
   652.500   1.90933096e+02
   653.000   1.91869467e+02
   653.500   1.92825313e+02
   654.000   1.93800808e+02
   654.500   1.94796128e+02
   655.000   1.95811456e+02
   655.500   1.96846982e+02
   656.000   1.97902901e+02
   656.500   1.98979416e+02
   657.000   2.00076734e+02
   657.500   2.01195071e+02
   658.000   2.02334646e+02
   658.500   2.03495689e+02
   659.000   2.04678432e+02
   659.500   2.05883117e+02
   660.000   2.07109991e+02
   660.500   2.08359309e+02
   661.000   2.09631333e+02
   661.500   2.10926331e+02
   662.000   2.12244578e+02
   662.500   2.13586358e+02
   663.000   2.14951960e+02
   663.500   2.16341682e+02
   664.000   2.17755830e+02
   664.500   2.19194715e+02
   665.000   2.20658659e+02
   665.500   2.22147989e+02
   666.000   2.23663041e+02
   666.500   2.25204159e+02
   667.000   2.26771695e+02
   667.500   2.28366009e+02
   668.000   2.29987470e+02
   668.500   2.31636453e+02
   669.000   2.33313345e+02
   669.500   2.35018538e+02
   670.000   2.36752434e+02
   670.500   2.38515445e+02
   671.000   2.40307990e+02
   671.500   2.42130497e+02
   672.000   2.43983404e+02
   672.500   2.45867156e+02
   673.000   2.47782208e+02
   673.500   2.49729026e+02
   674.000   2.51708082e+02
   674.500   2.53719858e+02
   675.000   2.55764847e+02
   675.500   2.57843550e+02
   676.000   2.59956476e+02
   676.500   2.62104145e+02
   677.000   2.64287086e+02
   677.500   2.66505837e+02
   678.000   2.68760945e+02
   678.500   2.71052965e+02
   679.000   2.73382465e+02
   679.500   2.75750017e+02
   680.000   2.78156205e+02
   680.500   2.80601621e+02
   681.000   2.83086867e+02
   681.500   2.85612552e+02
   682.000   2.88179292e+02
   682.500   2.90787714e+02
   683.000   2.93438453e+02
   683.500   2.96132148e+02
   684.000   2.98869449e+02
   684.500   3.01651011e+02
   685.000   3.04477497e+02
   685.500   3.07349575e+02
   686.000   3.10267920e+02
   686.500   3.13233211e+02
   687.000   3.16246131e+02
   687.500   3.19307371e+02
   688.000   3.22417621e+02
   688.500   3.25577576e+02
   689.000   3.28787933e+02
   689.500   3.32049390e+02
   690.000   3.35362646e+02
   690.500   3.38728398e+02
   691.000   3.42147343e+02
   691.500   3.45620173e+02
   692.000   3.49147580e+02
   692.500   3.52730247e+02
   693.000   3.56368852e+02
   693.500   3.60064067e+02
   694.000   3.63816552e+02
   694.500   3.67626957e+02
   695.000   3.71495921e+02
   695.500   3.75424066e+02
   696.000   3.79412000e+02
   696.500   3.83460312e+02
   697.000   3.87569570e+02
   697.500   3.91740321e+02
   698.000   3.95973086e+02
   698.500   4.00268361e+02
   699.000   4.04626610e+02
   699.500   4.09048267e+02
   700.000   4.13533731e+02
   700.500   4.18083362e+02
   701.000   4.22697481e+02
   701.500   4.27376367e+02
   702.000   4.32120252e+02
   702.500   4.36929317e+02
   703.000   4.41803693e+02
   703.500   4.46743457e+02
   704.000   4.51748624e+02
   704.500   4.56819151e+02
   705.000   4.61954928e+02
   705.500   4.67155778e+02
   706.000   4.72421455e+02
   706.500   4.77751635e+02
   707.000   4.83145923e+02
   707.500   4.88603840e+02
   708.000   4.94124828e+02
   708.500   4.99708244e+02
   709.000   5.05353358e+02
   709.500   5.11059353e+02
   710.000   5.16825321e+02
   710.500   5.22650265e+02
   711.000   5.28533094e+02
   711.500   5.34472627e+02
   712.000   5.40467589e+02
   712.500   5.46516615e+02
   713.000   5.52618250e+02
   713.500   5.58770950e+02
   714.000   5.64973085e+02
   714.500   5.71222943e+02
   715.000   5.77518732e+02
   715.500   5.83858588e+02
   716.000   5.90240575e+02
   716.500   5.96662698e+02
   717.000   6.03122904e+02
   717.500   6.09619095e+02
   718.000   6.16149132e+02
   718.500   6.22710849e+02
   719.000   6.29302061e+02
   719.500   6.35920576e+02
   720.000   6.42564207e+02
   720.500   6.49230785e+02
   721.000   6.55918174e+02
   721.500   6.62624283e+02
   722.000   6.69347080e+02
   722.500   6.76084611e+02
   723.000   6.82835013e+02
   723.500   6.89596528e+02
   724.000   6.96367525e+02
   724.500   7.03146508e+02
   725.000   7.09932140e+02
   725.500   7.16723250e+02
   726.000   7.23518857e+02
   726.500   7.30318178e+02
   727.000   7.37120644e+02
   727.500   7.43925916e+02
   728.000   7.50733892e+02
   728.500   7.57544722e+02
   729.000   7.64358817e+02
   729.500   7.71176854e+02
   730.000   7.77999791e+02
   730.500   7.84828864e+02
   731.000   7.91665598e+02
   731.500   7.98511802e+02
   732.000   8.05369577e+02
   732.500   8.12241313e+02
   733.000   8.19129682e+02
   733.500   8.26037639e+02
   734.000   8.32968414e+02
   734.500   8.39925504e+02
   735.000   8.46912663e+02
   735.500   8.53933895e+02
   736.000   8.60993438e+02
   736.500   8.68095754e+02
   737.000   8.75245512e+02
   737.500   8.82447574e+02
   738.000   8.89706980e+02
   738.500   8.97028927e+02
   739.000   9.04418756e+02
   739.500   9.11881930e+02
   740.000   9.19424018e+02
   740.500   9.27050672e+02
   741.000   9.34767613e+02
   741.500   9.42580608e+02
   742.000   9.50495451e+02
   742.500   9.58517944e+02
   743.000   9.66653879e+02
   743.500   9.74909017e+02
   744.000   9.83289070e+02
   744.500   9.91799682e+02
   745.000   1.00044641e+03
   745.500   1.00923471e+03
   746.000   1.01816992e+03
   746.500   1.02725722e+03
   747.000   1.03650166e+03
   747.500   1.04590810e+03
   748.000   1.05548122e+03
   748.500   1.06522548e+03
   749.000   1.07514512e+03
   749.500   1.08524417e+03
   750.000   1.09552635e+03
   750.500   1.10599517e+03
   751.000   1.11665381e+03
   751.500   1.12750515e+03
   752.000   1.13855178e+03
   752.500   1.14979591e+03
   753.000   1.16123943e+03
   753.500   1.17288385e+03
   754.000   1.18473027e+03
   754.500   1.19677941e+03
   755.000   1.20903156e+03
   755.500   1.22148656e+03
   756.000   1.23414378e+03
   756.500   1.24700212e+03
   757.000   1.26005997e+03
   757.500   1.27331520e+03
   758.000   1.28676515e+03
   758.500   1.30040656e+03
   759.000   1.31423563e+03
   759.500   1.32824791e+03
   760.000   1.34243837e+03
   760.500   1.35680129e+03
   761.000   1.37133030e+03
   761.500   1.38601834e+03
   762.000   1.40085764e+03
   762.500   1.41583971e+03
   763.000   1.43095530e+03
   763.500   1.44619440e+03
   764.000   1.46154623e+03
   764.500   1.47699921e+03
   765.000   1.49254096e+03
   765.500   1.50815829e+03
   766.000   1.52383717e+03
   766.500   1.53956276e+03
   767.000   1.55531940e+03
   767.500   1.57109057e+03
   768.000   1.58685898e+03
   768.500   1.60260648e+03
   769.000   1.61831415e+03
   769.500   1.63396228e+03
   770.000   1.64953043e+03
   770.500   1.66499741e+03
   771.000   1.68034133e+03
   771.500   1.69553968e+03
   772.000   1.71056931e+03
   772.500   1.72540653e+03
   773.000   1.74002716e+03
   773.500   1.75440657e+03
   774.000   1.76851976e+03
   774.500   1.78234146e+03
   775.000   1.79584618e+03
   775.500   1.80900830e+03
   776.000   1.82180217e+03
   776.500   1.83420221e+03
   777.000   1.84618300e+03
   777.500   1.85771938e+03
   778.000   1.86878658e+03
   778.500   1.87936030e+03
   779.000   1.88941684e+03
   779.500   1.89893320e+03
   780.000   1.90788720e+03
   780.500   1.91625759e+03
   781.000   1.92402416e+03
   781.500   1.93116782e+03
   782.000   1.93767073e+03
   782.500   1.94351639e+03
   783.000   1.94868972e+03
   783.500   1.95317716e+03
   784.000   1.95696671e+03
   784.500   1.96004805e+03
   785.000   1.96241255e+03
   785.500   1.96405333e+03
   786.000   1.96496533e+03
   786.500   1.96514528e+03
   787.000   1.96459176e+03
   787.500   1.96330520e+03
   788.000   1.96128782e+03
   788.500   1.95854371e+03
   789.000   1.95507871e+03
   789.500   1.95090041e+03
   790.000   1.94601810e+03
   790.500   1.94044271e+03
   791.000   1.93418673e+03
   791.500   1.92726415e+03
   792.000   1.91969037e+03
   792.500   1.91148210e+03
   793.000   1.90265727e+03
   793.500   1.89323496e+03
   794.000   1.88323524e+03
   794.500   1.87267911e+03
   795.000   1.86158837e+03
   795.500   1.84998551e+03
   796.000   1.83789362e+03
   796.500   1.82533628e+03
   797.000   1.81233742e+03
   797.500   1.79892126e+03
   798.000   1.78511218e+03
   798.500   1.77093467e+03
   799.000   1.75641316e+03
   799.500   1.74157201e+03
   800.000   1.72643538e+03
   800.500   1.71102717e+03
   801.000   1.69537096e+03
   801.500   1.67948993e+03
   802.000   1.66340678e+03
   802.500   1.64714374e+03
   803.000   1.63072246e+03
   803.500   1.61416399e+03
   804.000   1.59748875e+03
   804.500   1.58071648e+03
   805.000   1.56386626e+03
   805.500   1.54695641e+03
   806.000   1.53000457e+03
   806.500   1.51302760e+03
   807.000   1.49604164e+03
   807.500   1.47906206e+03
   808.000   1.46210347e+03
   808.500   1.44517977e+03
   809.000   1.42830408e+03
   809.500   1.41148879e+03
   810.000   1.39474560e+03
   810.500   1.37808547e+03
   811.000   1.36151867e+03
   811.500   1.34505481e+03
   812.000   1.32870283e+03
   812.500   1.31247104e+03
   813.000   1.29636712e+03
   813.500   1.28039818e+03
   814.000   1.26457072e+03
   814.500   1.24889071e+03
   815.000   1.23336358e+03
   815.500   1.21799428e+03
   816.000   1.20278723e+03
   816.500   1.18774642e+03
   817.000   1.17287539e+03
   817.500   1.15817726e+03
   818.000   1.14365476e+03
   818.500   1.12931025e+03
   819.000   1.11514571e+03
   819.500   1.10116280e+03
   820.000   1.08736288e+03
   820.500   1.07374699e+03
   821.000   1.06031589e+03
   821.500   1.04707011e+03
   822.000   1.03400991e+03
   822.500   1.02113532e+03
   823.000   1.00844617e+03
   823.500   9.95942099e+02
   824.000   9.83622544e+02
   824.500   9.71486786e+02
   825.000   9.59533947e+02
   825.500   9.47763005e+02
   826.000   9.36172806e+02
   826.500   9.24762076e+02
   827.000   9.13529430e+02
   827.500   9.02473380e+02
   828.000   8.91592350e+02
   828.500   8.80884681e+02
   829.000   8.70348639e+02
   829.500   8.59982425e+02
   830.000   8.49784181e+02
   830.500   8.39751997e+02
   831.000   8.29883917e+02
   831.500   8.20177948e+02
   832.000   8.10632060e+02
   832.500   8.01244197e+02
   833.000   7.92012281e+02
   833.500   7.82934212e+02
   834.000   7.74007878e+02
   834.500   7.65231156e+02
   835.000   7.56601915e+02
   835.500   7.48118023e+02
   836.000   7.39777346e+02
   836.500   7.31577753e+02
   837.000   7.23517120e+02
   837.500   7.15593328e+02
   838.000   7.07804271e+02
   838.500   7.00147854e+02
   839.000   6.92621996e+02
   839.500   6.85224632e+02
   840.000   6.77953714e+02
   840.500   6.70807215e+02
   841.000   6.63783125e+02
   841.500   6.56879458e+02
   842.000   6.50094247e+02
   842.500   6.43425552e+02
   843.000   6.36871454e+02
   843.500   6.30430061e+02
   844.000   6.24099505e+02
   844.500   6.17877944e+02
   845.000   6.11763561e+02
   845.500   6.05754569e+02
   846.000   5.99849205e+02
   846.500   5.94045734e+02
   847.000   5.88342449e+02
   847.500   5.82737669e+02
   848.000   5.77229743e+02
   848.500   5.71817044e+02
   849.000   5.66497977e+02
   849.500   5.61270971e+02
   850.000   5.56134483e+02
   850.500   5.51086999e+02
   851.000   5.46127029e+02
   851.500   5.41253114e+02
   852.000   5.36463817e+02
   852.500   5.31757732e+02
   853.000   5.27133474e+02
   853.500   5.22589689e+02
   854.000   5.18125046e+02
   854.500   5.13738238e+02
   855.000   5.09427984e+02
   855.500   5.05193028e+02
   856.000   5.01032137e+02
   856.500   4.96944103e+02
   857.000   4.92927739e+02
   857.500   4.88981883e+02
   858.000   4.85105393e+02
   858.500   4.81297150e+02
   859.000   4.77556058e+02
   859.500   4.73881039e+02
   860.000   4.70271037e+02
   860.500   4.66725016e+02
   861.000   4.63241958e+02
   861.500   4.59820866e+02
   862.000   4.56460760e+02
   862.500   4.53160677e+02
   863.000   4.49919673e+02
   863.500   4.46736820e+02
   864.000   4.43611205e+02
   864.500   4.40541932e+02
   865.000   4.37528120e+02
   865.500   4.34568901e+02
   866.000   4.31663421e+02
   866.500   4.28810841e+02
   867.000   4.26010333e+02
   867.500   4.23261079e+02
   868.000   4.20562276e+02
   868.500   4.17913130e+02
   869.000   4.15312855e+02
   869.500   4.12760676e+02
   870.000   4.10255828e+02
   870.500   4.07797552e+02
   871.000   4.05385096e+02
   871.500   4.03017715e+02
   872.000   4.00694670e+02
   872.500   3.98415228e+02
   873.000   3.96178658e+02
   873.500   3.93984237e+02
   874.000   3.91831240e+02
   874.500   3.89718949e+02
   875.000   3.87646646e+02
   875.500   3.85613612e+02
   876.000   3.83619133e+02
   876.500   3.81662491e+02
   877.000   3.79742970e+02
   877.500   3.77859851e+02
   878.000   3.76012415e+02
   878.500   3.74199938e+02
   879.000   3.72421698e+02
   879.500   3.70676964e+02
   880.000   3.68965007e+02
   880.500   3.67285092e+02
   881.000   3.65636478e+02
   881.500   3.64018425e+02
   882.000   3.62430183e+02
   882.500   3.60871002e+02
   883.000   3.59340127e+02
   883.500   3.57836797e+02
   884.000   3.56360250e+02
   884.500   3.54909718e+02
   885.000   3.53484433e+02
   885.500   3.52083621e+02
   886.000   3.50706509e+02
   886.500   3.49352323e+02
   887.000   3.48020286e+02
   887.500   3.46709624e+02
   888.000   3.45419566e+02
   888.500   3.44149341e+02
   889.000   3.42898185e+02
   889.500   3.41665338e+02
   890.000   3.40450047e+02
   890.500   3.39251570e+02
   891.000   3.38069172e+02
   891.500   3.36902133e+02
   892.000   3.35749745e+02
   892.500   3.34611316e+02
   893.000   3.33486170e+02
   893.500   3.32373652e+02
   894.000   3.31273127e+02
   894.500   3.30183983e+02
   895.000   3.29105631e+02
   895.500   3.28037508e+02
   896.000   3.26979082e+02
   896.500   3.25929844e+02
   897.000   3.24889322e+02
   897.500   3.23857071e+02
   898.000   3.22832680e+02
   898.500   3.21815773e+02
   899.000   3.20806007e+02
   899.500   3.19803076e+02
   900.000   3.18806710e+02
   900.500   3.17816671e+02
   901.000   3.16832763e+02
   901.500   3.15854822e+02
   902.000   3.14882722e+02
   902.500   3.13916369e+02
   903.000   3.12955709e+02
   903.500   3.12000716e+02
   904.000   3.11051401e+02
   904.500   3.10107806e+02
   905.000   3.09170001e+02
   905.500   3.08238088e+02
   906.000   3.07312195e+02
   906.500   3.06392474e+02
   907.000   3.05479104e+02
   907.500   3.04572286e+02
   908.000   3.03672238e+02
   908.500   3.02779200e+02
   909.000   3.01893428e+02
   909.500   3.01015190e+02
   910.000   3.00144771e+02
   910.500   2.99282462e+02
   911.000   2.98428567e+02
   911.500   2.97583396e+02
   912.000   2.96747263e+02
   912.500   2.95920488e+02
   913.000   2.95103392e+02
   913.500   2.94296297e+02
   914.000   2.93499525e+02
   914.500   2.92713394e+02
   915.000   2.91938222e+02
   915.500   2.91174320e+02
   916.000   2.90421995e+02
   916.500   2.89681549e+02
   917.000   2.88953274e+02
   917.500   2.88237457e+02
   918.000   2.87534375e+02
   918.500   2.86844299e+02
   919.000   2.86167487e+02
   919.500   2.85504190e+02
   920.000   2.84854649e+02
   920.500   2.84219094e+02
   921.000   2.83597746e+02
   921.500   2.82990815e+02
   922.000   2.82398503e+02
   922.500   2.81820998e+02
   923.000   2.81258482e+02
   923.500   2.80711126e+02
   924.000   2.80179090e+02
   924.500   2.79662526e+02
   925.000   2.79161578e+02
   925.500   2.78676380e+02
   926.000   2.78207056e+02
   926.500   2.77753726e+02
   927.000   2.77316499e+02
   927.500   2.76895477e+02
   928.000   2.76490758e+02
   928.500   2.76102429e+02
   929.000   2.75730574e+02
   929.500   2.75375270e+02
   930.000   2.75036589e+02
   930.500   2.74714599e+02
   931.000   2.74409361e+02
   931.500   2.74120933e+02
   932.000   2.73849370e+02
   932.500   2.73594723e+02
   933.000   2.73357039e+02
   933.500   2.73136364e+02
   934.000   2.72932739e+02
   934.500   2.72746205e+02
   935.000   2.72576801e+02
   935.500   2.72424565e+02
   936.000   2.72289531e+02
   936.500   2.72171736e+02
   937.000   2.72071215e+02
   937.500   2.71988001e+02
   938.000   2.71922129e+02
   938.500   2.71873634e+02
   939.000   2.71842550e+02
   939.500   2.71828915e+02
   940.000   2.71832763e+02
   940.500   2.71854134e+02
   941.000   2.71893066e+02
   941.500   2.71949600e+02
   942.000   2.72023778e+02
   942.500   2.72115646e+02
   943.000   2.72225249e+02
   943.500   2.72352636e+02
   944.000   2.72497858e+02
   944.500   2.72660969e+02
   945.000   2.72842025e+02
   945.500   2.73041085e+02
   946.000   2.73258212e+02
   946.500   2.73493470e+02
   947.000   2.73746929e+02
   947.500   2.74018660e+02
   948.000   2.74308739e+02
   948.500   2.74617244e+02
   949.000   2.74944258e+02
   949.500   2.75289868e+02
   950.000   2.75654163e+02
   950.500   2.76037239e+02
   951.000   2.76439193e+02
   951.500   2.76860128e+02
   952.000   2.77300151e+02
   952.500   2.77759373e+02
   953.000   2.78237911e+02
   953.500   2.78735883e+02
   954.000   2.79253416e+02
   954.500   2.79790639e+02
   955.000   2.80347685e+02
   955.500   2.80924696e+02
   956.000   2.81521814e+02
   956.500   2.82139189e+02
   957.000   2.82776976e+02
   957.500   2.83435333e+02
   958.000   2.84114427e+02
   958.500   2.84814427e+02
   959.000   2.85535509e+02
   959.500   2.86277854e+02
   960.000   2.87041649e+02
   960.500   2.87827087e+02
   961.000   2.88634364e+02
   961.500   2.89463686e+02
   962.000   2.90315262e+02
   962.500   2.91189307e+02
   963.000   2.92086044e+02
   963.500   2.93005700e+02
   964.000   2.93948509e+02
   964.500   2.94914711e+02
   965.000   2.95904552e+02
   965.500   2.96918285e+02
   966.000   2.97956170e+02
   966.500   2.99018471e+02
   967.000   3.00105460e+02
   967.500   3.01217417e+02
   968.000   3.02354626e+02
   968.500   3.03517380e+02
   969.000   3.04705976e+02
   969.500   3.05920720e+02
   970.000   3.07161925e+02
   970.500   3.08429908e+02
   971.000   3.09724996e+02
   971.500   3.11047522e+02
   972.000   3.12397825e+02
   972.500   3.13776251e+02
   973.000   3.15183154e+02
   973.500   3.16618895e+02
   974.000   3.18083840e+02
   974.500   3.19578363e+02
   975.000   3.21102847e+02
   975.500   3.22657678e+02
   976.000   3.24243252e+02
   976.500   3.25859970e+02
   977.000   3.27508241e+02
   977.500   3.29188479e+02
   978.000   3.30901106e+02
   978.500   3.32646551e+02
   979.000   3.34425248e+02
   979.500   3.36237638e+02
   980.000   3.38084168e+02
   980.500   3.39965292e+02
   981.000   3.41881467e+02
   981.500   3.43833160e+02
   982.000   3.45820840e+02
   982.500   3.47844983e+02
   983.000   3.49906070e+02
   983.500   3.52004587e+02
   984.000   3.54141024e+02
   984.500   3.56315877e+02
   985.000   3.58529643e+02
   985.500   3.60782828e+02
   986.000   3.63075936e+02
   986.500   3.65409477e+02
   987.000   3.67783966e+02
   987.500   3.70199916e+02
   988.000   3.72657846e+02
   988.500   3.75158275e+02
   989.000   3.77701724e+02
   989.500   3.80288716e+02
   990.000   3.82919773e+02
   990.500   3.85595420e+02
   991.000   3.88316178e+02
   991.500   3.91082572e+02
   992.000   3.93895124e+02
   992.500   3.96754355e+02
   993.000   3.99660784e+02
   993.500   4.02614931e+02
   994.000   4.05617312e+02
   994.500   4.08668440e+02
   995.000   4.11768826e+02
   995.500   4.14918980e+02
   996.000   4.18119407e+02
   996.500   4.21370610e+02
   997.000   4.24673089e+02
   997.500   4.28027342e+02
   998.000   4.31433863e+02
   998.500   4.34893143e+02
   999.000   4.38405673e+02
   999.500   4.41971939e+02
  1000.000   4.45592428e+02
  1000.500   4.49267625e+02
  1001.000   4.52998016e+02
  1001.500   4.56784087e+02
  1002.000   4.60626324e+02
  1002.500   4.64525218e+02
  1003.000   4.68481262e+02
  1003.500   4.72494956e+02
  1004.000   4.76566805e+02
  1004.500   4.80697322e+02
  1005.000   4.84887029e+02
  1005.500   4.89136462e+02
  1006.000   4.93446167e+02
  1006.500   4.97816707e+02
  1007.000   5.02248661e+02
  1007.500   5.06742628e+02
  1008.000   5.11299227e+02
  1008.500   5.15919101e+02
  1009.000   5.20602917e+02
  1009.500   5.25351372e+02
  1010.000   5.30165190e+02
  1010.500   5.35045127e+02
  1011.000   5.39991970e+02
  1011.500   5.45006545e+02
  1012.000   5.50089711e+02
  1012.500   5.55242363e+02
  1013.000   5.60465439e+02
  1013.500   5.65759912e+02
  1014.000   5.71126796e+02
  1014.500   5.76567145e+02
  1015.000   5.82082053e+02
  1015.500   5.87672652e+02
  1016.000   5.93340111e+02
  1016.500   5.99085637e+02
  1017.000   6.04910472e+02
  1017.500   6.10815886e+02
  1018.000   6.16803182e+02
  1018.500   6.22873687e+02
  1019.000   6.29028749e+02
  1019.500   6.35269735e+02
  1020.000   6.41598020e+02
  1020.500   6.48014990e+02
  1021.000   6.54522029e+02
  1021.500   6.61120513e+02
  1022.000   6.67811808e+02
  1022.500   6.74597256e+02
  1023.000   6.81478171e+02
  1023.500   6.88455826e+02
  1024.000   6.95531451e+02
  1024.500   7.02706215e+02
  1025.000   7.09981222e+02
  1025.500   7.17357497e+02
  1026.000   7.24835975e+02
  1026.500   7.32417494e+02
  1027.000   7.40102777e+02
  1027.500   7.47892424e+02
  1028.000   7.55786898e+02
  1028.500   7.63786512e+02
  1029.000   7.71891417e+02
  1029.500   7.80101586e+02
  1030.000   7.88416804e+02
  1030.500   7.96836650e+02
  1031.000   8.05360487e+02
  1031.500   8.13987445e+02
  1032.000   8.22716405e+02
  1032.500   8.31545987e+02
  1033.000   8.40474538e+02
  1033.500   8.49500110e+02
  1034.000   8.58620451e+02
  1034.500   8.67832988e+02
  1035.000   8.77134817e+02
  1035.500   8.86522680e+02
  1036.000   8.95992960e+02
  1036.500   9.05541665e+02
  1037.000   9.15164411e+02
  1037.500   9.24856417e+02
  1038.000   9.34612487e+02
  1038.500   9.44427003e+02
  1039.000   9.54293913e+02
  1039.500   9.64206727e+02
  1040.000   9.74158502e+02
  1040.500   9.84141845e+02
  1041.000   9.94148901e+02
  1041.500   1.00417136e+03
  1042.000   1.01420044e+03
  1042.500   1.02422691e+03
  1043.000   1.03424107e+03
  1043.500   1.04423279e+03
  1044.000   1.05419148e+03
  1044.500   1.06410613e+03
  1045.000   1.07396532e+03
  1045.500   1.08375721e+03
  1046.000   1.09346962e+03
  1046.500   1.10308998e+03
  1047.000   1.11260542e+03
  1047.500   1.12200278e+03
  1048.000   1.13126860e+03
  1048.500   1.14038925e+03
  1049.000   1.14935089e+03
  1049.500   1.15813953e+03
  1050.000   1.16674112e+03
  1050.500   1.17514155e+03
  1051.000   1.18332673e+03
  1051.500   1.19128264e+03
  1052.000   1.19899538e+03
  1052.500   1.20645123e+03
  1053.000   1.21363673e+03
  1053.500   1.22053873e+03
  1054.000   1.22714445e+03
  1054.500   1.23344152e+03
  1055.000   1.23941811e+03
  1055.500   1.24506291e+03
  1056.000   1.25036525e+03
  1056.500   1.25531513e+03
  1057.000   1.25990329e+03
  1057.500   1.26412124e+03
  1058.000   1.26796134e+03
  1058.500   1.27141680e+03
  1059.000   1.27448179e+03
  1059.500   1.27715140e+03
  1060.000   1.27942170e+03
  1060.500   1.28128979e+03
  1061.000   1.28275377e+03
  1061.500   1.28381279e+03
  1062.000   1.28446703e+03
  1062.500   1.28471772e+03
  1063.000   1.28456711e+03
  1063.500   1.28401847e+03
  1064.000   1.28307608e+03
  1064.500   1.28174517e+03
  1065.000   1.28003193e+03
  1065.500   1.27794346e+03
  1066.000   1.27548770e+03
  1066.500   1.27267343e+03
  1067.000   1.26951019e+03
  1067.500   1.26600823e+03
  1068.000   1.26217848e+03
  1068.500   1.25803245e+03
  1069.000   1.25358222e+03
  1069.500   1.24884032e+03
  1070.000   1.24381973e+03
  1070.500   1.23853378e+03
  1071.000   1.23299609e+03
  1071.500   1.22722053e+03
  1072.000   1.22122115e+03
  1072.500   1.21501210e+03
  1073.000   1.20860764e+03
  1073.500   1.20202199e+03
  1074.000   1.19526937e+03
  1074.500   1.18836391e+03
  1075.000   1.18131959e+03
  1075.500   1.17415024e+03
  1076.000   1.16686947e+03
  1076.500   1.15949064e+03
  1077.000   1.15202685e+03
  1077.500   1.14449086e+03
  1078.000   1.13689515e+03
  1078.500   1.12925179e+03
  1079.000   1.12157251e+03
  1079.500   1.11386865e+03
  1080.000   1.10615114e+03
  1080.500   1.09843049e+03
  1081.000   1.09071681e+03
  1081.500   1.08301976e+03
  1082.000   1.07534860e+03
  1082.500   1.06771212e+03
  1083.000   1.06011870e+03
  1083.500   1.05257631e+03
  1084.000   1.04509247e+03
  1084.500   1.03767428e+03
  1085.000   1.03032844e+03
  1085.500   1.02306125e+03
  1086.000   1.01587859e+03
  1086.500   1.00878598e+03
  1087.000   1.00178855e+03
  1087.500   9.94891063e+02
  1088.000   9.88097925e+02
  1088.500   9.81413205e+02
  1089.000   9.74840633e+02
  1089.500   9.68383621e+02
  1090.000   9.62045269e+02
  1090.500   9.55828383e+02
  1091.000   9.49735477e+02
  1091.500   9.43768795e+02
  1092.000   9.37930313e+02
  1092.500   9.32221758e+02
  1093.000   9.26644611e+02
  1093.500   9.21200122e+02
  1094.000   9.15889320e+02
  1094.500   9.10713022e+02
  1095.000   9.05671838e+02
  1095.500   9.00766188e+02
  1096.000   8.95996303e+02
  1096.500   8.91362239e+02
  1097.000   8.86863878e+02
  1097.500   8.82500943e+02
  1098.000   8.78272998e+02
  1098.500   8.74179458e+02
  1099.000   8.70219595e+02
  1099.500   8.66392544e+02
  1100.000   8.62697305e+02
  1100.500   8.59132753e+02
  1101.000   8.55697641e+02
  1101.500   8.52390600e+02
  1102.000   8.49210152e+02
  1102.500   8.46154706e+02
  1103.000   8.43222566e+02
  1103.500   8.40411932e+02
  1104.000   8.37720906e+02
  1104.500   8.35147493e+02
  1105.000   8.32689607e+02
  1105.500   8.30345068e+02
  1106.000   8.28111612e+02
  1106.500   8.25986890e+02
  1107.000   8.23968472e+02
  1107.500   8.22053849e+02
  1108.000   8.20240438e+02
  1108.500   8.18525582e+02
  1109.000   8.16906556e+02
  1109.500   8.15380570e+02
  1110.000   8.13944772e+02
  1110.500   8.12596252e+02
  1111.000   8.11332046e+02
  1111.500   8.10149141e+02
  1112.000   8.09044479e+02
  1112.500   8.08014963e+02
  1113.000   8.07057462e+02
  1113.500   8.06168818e+02
  1114.000   8.05345850e+02
  1114.500   8.04585364e+02
  1115.000   8.03884155e+02
  1115.500   8.03239022e+02
  1116.000   8.02646769e+02
  1116.500   8.02104219e+02
  1117.000   8.01608219e+02
  1117.500   8.01155650e+02
  1118.000   8.00743440e+02
  1118.500   8.00368568e+02
  1119.000   8.00028080e+02
  1119.500   7.99719096e+02
  1120.000   7.99438819e+02
  1120.500   7.99184552e+02
  1121.000   7.98953700e+02
  1121.500   7.98743787e+02
  1122.000   7.98552465e+02
  1122.500   7.98377519e+02
  1123.000   7.98216883e+02
  1123.500   7.98068647e+02
  1124.000   7.97931064e+02
  1124.500   7.97802559e+02
  1125.000   7.97681736e+02
  1125.500   7.97567384e+02
  1126.000   7.97458484e+02
  1126.500   7.97354213e+02
  1127.000   7.97253945e+02
  1127.500   7.97157257e+02
  1128.000   7.97063927e+02
  1128.500   7.96973938e+02
  1129.000   7.96887474e+02
  1129.500   7.96804920e+02
  1130.000   7.96726856e+02
  1130.500   7.96654057e+02
  1131.000   7.96587483e+02
  1131.500   7.96528277e+02
  1132.000   7.96477754e+02
  1132.500   7.96437397e+02
  1133.000   7.96408843e+02
  1133.500   7.96393878e+02
  1134.000   7.96394422e+02
  1134.500   7.96412525e+02
  1135.000   7.96450346e+02
  1135.500   7.96510151e+02
  1136.000   7.96594294e+02
  1136.500   7.96705209e+02
  1137.000   7.96845394e+02
  1137.500   7.97017403e+02
  1138.000   7.97223831e+02
  1138.500   7.97467301e+02
  1139.000   7.97750455e+02
  1139.500   7.98075940e+02
  1140.000   7.98446399e+02
  1140.500   7.98864458e+02
  1141.000   7.99332715e+02
  1141.500   7.99853732e+02
  1142.000   8.00430024e+02
  1142.500   8.01064051e+02
  1143.000   8.01758209e+02
  1143.500   8.02514818e+02
  1144.000   8.03336121e+02
  1144.500   8.04224271e+02
  1145.000   8.05181328e+02
  1145.500   8.06209250e+02
  1146.000   8.07309889e+02
  1146.500   8.08484984e+02
  1147.000   8.09736156e+02
  1147.500   8.11064905e+02
  1148.000   8.12472604e+02
  1148.500   8.13960495e+02
  1149.000   8.15529685e+02
  1149.500   8.17181144e+02
  1150.000   8.18915701e+02
  1150.500   8.20734038e+02
  1151.000   8.22636694e+02
  1151.500   8.24624054e+02
  1152.000   8.26696355e+02
  1152.500   8.28853676e+02
  1153.000   8.31095943e+02
  1153.500   8.33422921e+02
  1154.000   8.35834217e+02
  1154.500   8.38329277e+02
  1155.000   8.40907383e+02
  1155.500   8.43567653e+02
  1156.000   8.46309043e+02
  1156.500   8.49130342e+02
  1157.000   8.52030172e+02
  1157.500   8.55006993e+02
  1158.000   8.58059096e+02
  1158.500   8.61184607e+02
  1159.000   8.64381490e+02
  1159.500   8.67647542e+02
  1160.000   8.70980402e+02
  1160.500   8.74377544e+02
  1161.000   8.77836288e+02
  1161.500   8.81353795e+02
  1162.000   8.84927078e+02
  1162.500   8.88552997e+02
  1163.000   8.92228269e+02
  1163.500   8.95949470e+02
  1164.000   8.99713040e+02
  1164.500   9.03515290e+02
  1165.000   9.07352405e+02
  1165.500   9.11220453e+02
  1166.000   9.15115392e+02
  1166.500   9.19033073e+02
  1167.000   9.22969253e+02
  1167.500   9.26919600e+02
  1168.000   9.30879704e+02
  1168.500   9.34845082e+02
  1169.000   9.38811190e+02
  1169.500   9.42773435e+02
  1170.000   9.46727179e+02
  1170.500   9.50667754e+02
  1171.000   9.54590471e+02
  1171.500   9.58490630e+02
  1172.000   9.62363532e+02
  1172.500   9.66204490e+02
  1173.000   9.70008840e+02
  1173.500   9.73771953e+02
  1174.000   9.77489246e+02
  1174.500   9.81156195e+02
  1175.000   9.84768345e+02
  1175.500   9.88321323e+02
  1176.000   9.91810853e+02
  1176.500   9.95232764e+02
  1177.000   9.98583003e+02
  1177.500   1.00185765e+03
  1178.000   1.00505293e+03
  1178.500   1.00816523e+03
  1179.000   1.01119109e+03
  1179.500   1.01412724e+03
  1180.000   1.01697062e+03
  1180.500   1.01971836e+03
  1181.000   1.02236782e+03
  1181.500   1.02491657e+03
  1182.000   1.02736244e+03
  1182.500   1.02970352e+03
  1183.000   1.03193816e+03
  1183.500   1.03406498e+03
  1184.000   1.03608289e+03
  1184.500   1.03799109e+03
  1185.000   1.03978909e+03
  1185.500   1.04147671e+03
  1186.000   1.04305407e+03
  1186.500   1.04452162e+03
  1187.000   1.04588015e+03
  1187.500   1.04713075e+03
  1188.000   1.04827486e+03
  1188.500   1.04931422e+03
  1189.000   1.05025091e+03
  1189.500   1.05108733e+03
  1190.000   1.05182620e+03
  1190.500   1.05247054e+03
  1191.000   1.05302366e+03
  1191.500   1.05348919e+03
  1192.000   1.05387100e+03
  1192.500   1.05417326e+03
  1193.000   1.05440038e+03
  1193.500   1.05455700e+03
  1194.000   1.05464799e+03
  1194.500   1.05467843e+03
  1195.000   1.05465357e+03
  1195.500   1.05457885e+03
  1196.000   1.05445985e+03
  1196.500   1.05430229e+03
  1197.000   1.05411200e+03
  1197.500   1.05389489e+03
  1198.000   1.05365697e+03
  1198.500   1.05340429e+03
  1199.000   1.05314296e+03
  1199.500   1.05287909e+03
  1200.000   1.05261881e+03
  1200.500   1.05236823e+03
  1201.000   1.05213345e+03
  1201.500   1.05192051e+03
  1202.000   1.05173541e+03
  1202.500   1.05158408e+03
  1203.000   1.05147238e+03
  1203.500   1.05140608e+03
  1204.000   1.05139086e+03
  1204.500   1.05143227e+03
  1205.000   1.05153578e+03
  1205.500   1.05170674e+03
  1206.000   1.05195037e+03
  1206.500   1.05227176e+03
  1207.000   1.05267588e+03
  1207.500   1.05316757e+03
  1208.000   1.05375153e+03
  1208.500   1.05443234e+03
  1209.000   1.05521444e+03
  1209.500   1.05610215e+03
  1210.000   1.05709965e+03
  1210.500   1.05821098e+03
  1211.000   1.05944010e+03
  1211.500   1.06079080e+03
  1212.000   1.06226679e+03
  1212.500   1.06387163e+03
  1213.000   1.06560882e+03
  1213.500   1.06748171e+03
  1214.000   1.06949357e+03
  1214.500   1.07164757e+03
  1215.000   1.07394681e+03
  1215.500   1.07639427e+03
  1216.000   1.07899288e+03
  1216.500   1.08174548e+03
  1217.000   1.08465486e+03
  1217.500   1.08772371e+03
  1218.000   1.09095470e+03
  1218.500   1.09435042e+03
  1219.000   1.09791343e+03
  1219.500   1.10164623e+03
  1220.000   1.10555130e+03
  1220.500   1.10963106e+03
  1221.000   1.11388791e+03
  1221.500   1.11832424e+03
  1222.000   1.12294240e+03
  1222.500   1.12774471e+03
  1223.000   1.13273351e+03
  1223.500   1.13791111e+03
  1224.000   1.14327979e+03
  1224.500   1.14884186e+03
  1225.000   1.15459962e+03
  1225.500   1.16055534e+03
  1226.000   1.16671133e+03
  1226.500   1.17306988e+03
  1227.000   1.17963329e+03
  1227.500   1.18640388e+03
  1228.000   1.19338396e+03
  1228.500   1.20057585e+03
  1229.000   1.20798190e+03
  1229.500   1.21560444e+03
  1230.000   1.22344583e+03
  1230.500   1.23150843e+03
  1231.000   1.23979461e+03
  1231.500   1.24830676e+03
  1232.000   1.25704725e+03
  1232.500   1.26601847e+03
  1233.000   1.27522282e+03
  1233.500   1.28466269e+03
  1234.000   1.29434045e+03
  1234.500   1.30425849e+03
  1235.000   1.31441919e+03
  1235.500   1.32482489e+03
  1236.000   1.33547792e+03
  1236.500   1.34638061e+03
  1237.000   1.35753523e+03
  1237.500   1.36894403e+03
  1238.000   1.38060921e+03
  1238.500   1.39253291e+03
  1239.000   1.40471724e+03
  1239.500   1.41716423e+03
  1240.000   1.42987581e+03
  1240.500   1.44285386e+03
  1241.000   1.45610014e+03
  1241.500   1.46961632e+03
  1242.000   1.48340395e+03
  1242.500   1.49746443e+03
  1243.000   1.51179903e+03
  1243.500   1.52640886e+03
  1244.000   1.54129485e+03
  1244.500   1.55645774e+03
  1245.000   1.57189807e+03
  1245.500   1.58761614e+03
  1246.000   1.60361203e+03
  1246.500   1.61988555e+03
  1247.000   1.63643620e+03
  1247.500   1.65326322e+03
  1248.000   1.67036549e+03
  1248.500   1.68774156e+03
  1249.000   1.70538960e+03
  1249.500   1.72330739e+03
  1250.000   1.74149228e+03
  1250.500   1.75994117e+03
  1251.000   1.77865050e+03
  1251.500   1.79761620e+03
  1252.000   1.81683367e+03
  1252.500   1.83629774e+03
  1253.000   1.85600269e+03
  1253.500   1.87594214e+03
  1254.000   1.89610910e+03
  1254.500   1.91649589e+03
  1255.000   1.93709415e+03
  1255.500   1.95789477e+03
  1256.000   1.97888789e+03
  1256.500   2.00006287e+03
  1257.000   2.02140827e+03
  1257.500   2.04291182e+03
  1258.000   2.06456038e+03
  1258.500   2.08633996e+03
  1259.000   2.10823565e+03
  1259.500   2.13023166e+03
  1260.000   2.15231128e+03
  1260.500   2.17445686e+03
  1261.000   2.19664983e+03
  1261.500   2.21887068e+03
  1262.000   2.24109896e+03
  1262.500   2.26331332e+03
  1263.000   2.28549150e+03
  1263.500   2.30761032e+03
  1264.000   2.32964578e+03
  1264.500   2.35157301e+03
  1265.000   2.37336635e+03
  1265.500   2.39499942e+03
  1266.000   2.41644510e+03
  1266.500   2.43767564e+03
  1267.000   2.45866271e+03
  1267.500   2.47937749e+03
  1268.000   2.49979073e+03
  1268.500   2.51987282e+03
  1269.000   2.53959394e+03
  1269.500   2.55892409e+03
  1270.000   2.57783327e+03
  1270.500   2.59629153e+03
  1271.000   2.61426912e+03
  1271.500   2.63173660e+03
  1272.000   2.64866498e+03
  1272.500   2.66502584e+03
  1273.000   2.68079145e+03
  1273.500   2.69593493e+03
  1274.000   2.71043035e+03
  1274.500   2.72425288e+03
  1275.000   2.73737893e+03
  1275.500   2.74978624e+03
  1276.000   2.76145404e+03
  1276.500   2.77236315e+03
  1277.000   2.78249608e+03
  1277.500   2.79183713e+03
  1278.000   2.80037251e+03
  1278.500   2.80809039e+03
  1279.000   2.81498099e+03
  1279.500   2.82103662e+03
  1280.000   2.82625175e+03
  1280.500   2.83062304e+03
  1281.000   2.83414936e+03
  1281.500   2.83683178e+03
  1282.000   2.83867358e+03
  1282.500   2.83968024e+03
  1283.000   2.83985940e+03
  1283.500   2.83922082e+03
  1284.000   2.83777629e+03
  1284.500   2.83553963e+03
  1285.000   2.83252654e+03
  1285.500   2.82875456e+03
  1286.000   2.82424294e+03
  1286.500   2.81901256e+03
  1287.000   2.81308580e+03
  1287.500   2.80648643e+03
  1288.000   2.79923948e+03
  1288.500   2.79137113e+03
  1289.000   2.78290855e+03
  1289.500   2.77387980e+03
  1290.000   2.76431368e+03
  1290.500   2.75423963e+03
  1291.000   2.74368757e+03
  1291.500   2.73268777e+03
  1292.000   2.72127079e+03
  1292.500   2.70946728e+03
  1293.000   2.69730795e+03
  1293.500   2.68482340e+03
  1294.000   2.67204405e+03
  1294.500   2.65900005e+03
  1295.000   2.64572119e+03
  1295.500   2.63223680e+03
  1296.000   2.61857571e+03
  1296.500   2.60476616e+03
  1297.000   2.59083576e+03
  1297.500   2.57681143e+03
  1298.000   2.56271934e+03
  1298.500   2.54858490e+03
  1299.000   2.53443271e+03
  1299.500   2.52028653e+03
  1300.000   2.50616928e+03
  1300.500   2.49210301e+03
  1301.000   2.47810890e+03
  1301.500   2.46420723e+03
  1302.000   2.45041742e+03
  1302.500   2.43675801e+03
  1303.000   2.42324666e+03
  1303.500   2.40990018e+03
  1304.000   2.39673452e+03
  1304.500   2.38376483e+03
  1305.000   2.37100543e+03
  1305.500   2.35846984e+03
  1306.000   2.34617085e+03
  1306.500   2.33412047e+03
  1307.000   2.32233001e+03
  1307.500   2.31081009e+03
  1308.000   2.29957066e+03
  1308.500   2.28862104e+03
  1309.000   2.27796993e+03
  1309.500   2.26762547e+03
  1310.000   2.25759522e+03
  1310.500   2.24788624e+03
  1311.000   2.23850508e+03
  1311.500   2.22945781e+03
  1312.000   2.22075009e+03
  1312.500   2.21238714e+03
  1313.000   2.20437379e+03
  1313.500   2.19671452e+03
  1314.000   2.18941344e+03
  1314.500   2.18247439e+03
  1315.000   2.17590088e+03
  1315.500   2.16969616e+03
  1316.000   2.16386323e+03
  1316.500   2.15840487e+03
  1317.000   2.15332365e+03
  1317.500   2.14862195e+03
  1318.000   2.14430196e+03
  1318.500   2.14036575e+03
  1319.000   2.13681524e+03
  1319.500   2.13365222e+03
  1320.000   2.13087838e+03
  1320.500   2.12849533e+03
  1321.000   2.12650461e+03
  1321.500   2.12490765e+03
  1322.000   2.12370589e+03
  1322.500   2.12290070e+03
  1323.000   2.12249341e+03
  1323.500   2.12248535e+03
  1324.000   2.12287785e+03
  1324.500   2.12367222e+03
  1325.000   2.12486978e+03
  1325.500   2.12647189e+03
  1326.000   2.12847992e+03
  1326.500   2.13089527e+03
  1327.000   2.13371939e+03
  1327.500   2.13695377e+03
  1328.000   2.14059995e+03
  1328.500   2.14465953e+03
  1329.000   2.14913417e+03
  1329.500   2.15402559e+03
  1330.000   2.15933559e+03
  1330.500   2.16506604e+03
  1331.000   2.17121889e+03
  1331.500   2.17779617e+03
  1332.000   2.18479999e+03
  1332.500   2.19223255e+03
  1333.000   2.20009613e+03
  1333.500   2.20839311e+03
  1334.000   2.21712595e+03
  1334.500   2.22629722e+03
  1335.000   2.23590956e+03
  1335.500   2.24596572e+03
  1336.000   2.25646853e+03
  1336.500   2.26742094e+03
  1337.000   2.27882596e+03
  1337.500   2.29068672e+03
  1338.000   2.30300642e+03
  1338.500   2.31578837e+03
  1339.000   2.32903594e+03
  1339.500   2.34275263e+03
  1340.000   2.35694198e+03
  1340.500   2.37160764e+03
  1341.000   2.38675332e+03
  1341.500   2.40238283e+03
  1342.000   2.41850001e+03
  1342.500   2.43510879e+03
  1343.000   2.45221318e+03
  1343.500   2.46981720e+03
  1344.000   2.48792496e+03
  1344.500   2.50654058e+03
  1345.000   2.52566823e+03
  1345.500   2.54531211e+03
  1346.000   2.56547642e+03
  1346.500   2.58616539e+03
  1347.000   2.60738324e+03
  1347.500   2.62913416e+03
  1348.000   2.65142233e+03
  1348.500   2.67425189e+03
  1349.000   2.69762691e+03
  1349.500   2.72155143e+03
  1350.000   2.74602936e+03
  1350.500   2.77106453e+03
  1351.000   2.79666065e+03
  1351.500   2.82282128e+03
  1352.000   2.84954983e+03
  1352.500   2.87684951e+03
  1353.000   2.90472334e+03
  1353.500   2.93317408e+03
  1354.000   2.96220426e+03
  1354.500   2.99181610e+03
  1355.000   3.02201150e+03
  1355.500   3.05279204e+03
  1356.000   3.08415887e+03
  1356.500   3.11611277e+03
  1357.000   3.14865404e+03
  1357.500   3.18178250e+03
  1358.000   3.21549745e+03
  1358.500   3.24979761e+03
  1359.000   3.28468110e+03
  1359.500   3.32014539e+03
  1360.000   3.35618726e+03
  1360.500   3.39280275e+03
  1361.000   3.42998712e+03
  1361.500   3.46773481e+03
  1362.000   3.50603937e+03
  1362.500   3.54489346e+03
  1363.000   3.58428875e+03
  1363.500   3.62421591e+03
  1364.000   3.66466455e+03
  1364.500   3.70562320e+03
  1365.000   3.74707922e+03
  1365.500   3.78901880e+03
  1366.000   3.83142690e+03
  1366.500   3.87428723e+03
  1367.000   3.91758218e+03
  1367.500   3.96129282e+03
  1368.000   4.00539888e+03
  1368.500   4.04987869e+03
  1369.000   4.09470917e+03
  1369.500   4.13986585e+03
  1370.000   4.18532281e+03
  1370.500   4.23105272e+03
  1371.000   4.27702681e+03
  1371.500   4.32321489e+03
  1372.000   4.36958540e+03
  1372.500   4.41610538e+03
  1373.000   4.46274054e+03
  1373.500   4.50945529e+03
  1374.000   4.55621278e+03
  1374.500   4.60297500e+03
  1375.000   4.64970279e+03
  1375.500   4.69635596e+03
  1376.000   4.74289336e+03
  1376.500   4.78927298e+03
  1377.000   4.83545204e+03
  1377.500   4.88138712e+03
  1378.000   4.92703426e+03
  1378.500   4.97234908e+03
  1379.000   5.01728697e+03
  1379.500   5.06180312e+03
  1380.000   5.10585278e+03
  1380.500   5.14939130e+03
  1381.000   5.19237434e+03
  1381.500   5.23475799e+03
  1382.000   5.27649893e+03
  1382.500   5.31755456e+03
  1383.000   5.35788314e+03
  1383.500   5.39744392e+03
  1384.000   5.43619729e+03
  1384.500   5.47410488e+03
  1385.000   5.51112967e+03
  1385.500   5.54723610e+03
  1386.000   5.58239015e+03
  1386.500   5.61655940e+03
  1387.000   5.64971315e+03
  1387.500   5.68182238e+03
  1388.000   5.71285987e+03
  1388.500   5.74280013e+03
  1389.000   5.77161949e+03
  1389.500   5.79929602e+03
  1390.000   5.82580954e+03
  1390.500   5.85114155e+03
  1391.000   5.87527522e+03
  1391.500   5.89819526e+03
  1392.000   5.91988792e+03
  1392.500   5.94034083e+03
  1393.000   5.95954295e+03
  1393.500   5.97748448e+03
  1394.000   5.99415673e+03
  1394.500   6.00955200e+03
  1395.000   6.02366353e+03
  1395.500   6.03648535e+03
  1396.000   6.04801220e+03
  1396.500   6.05823944e+03
  1397.000   6.06716295e+03
  1397.500   6.07477904e+03
  1398.000   6.08108444e+03
  1398.500   6.08607619e+03
  1399.000   6.08975161e+03
  1399.500   6.09210829e+03
  1400.000   6.09314405e+03
  1400.500   6.09285696e+03
  1401.000   6.09124536e+03
  1401.500   6.08830787e+03
  1402.000   6.08404344e+03
  1402.500   6.07845142e+03
  1403.000   6.07153160e+03
  1403.500   6.06328432e+03
  1404.000   6.05371057e+03
  1404.500   6.04281204e+03
  1405.000   6.03059128e+03
  1405.500   6.01705175e+03
  1406.000   6.00219800e+03
  1406.500   5.98603574e+03
  1407.000   5.96857197e+03
  1407.500   5.94981508e+03
  1408.000   5.92977494e+03
  1408.500   5.90846304e+03
  1409.000   5.88589255e+03
  1409.500   5.86207840e+03
  1410.000   5.83703735e+03
  1410.500   5.81078803e+03
  1411.000   5.78335103e+03
  1411.500   5.75474886e+03
  1412.000   5.72500599e+03
  1412.500   5.69414886e+03
  1413.000   5.66220582e+03
  1413.500   5.62920714e+03
  1414.000   5.59518491e+03
  1414.500   5.56017300e+03
  1415.000   5.52420699e+03
  1415.500   5.48732402e+03
  1416.000   5.44956277e+03
  1416.500   5.41096324e+03
  1417.000   5.37156672e+03
  1417.500   5.33141560e+03
  1418.000   5.29055323e+03
  1418.500   5.24902379e+03
  1419.000   5.20687215e+03
  1419.500   5.16414368e+03
  1420.000   5.12088414e+03
  1420.500   5.07713948e+03
  1421.000   5.03295576e+03
  1421.500   4.98837893e+03
  1422.000   4.94345473e+03
  1422.500   4.89822854e+03
  1423.000   4.85274526e+03
  1423.500   4.80704919e+03
  1424.000   4.76118387e+03
  1424.500   4.71519204e+03
  1425.000   4.66911549e+03
  1425.500   4.62299501e+03
  1426.000   4.57687025e+03
  1426.500   4.53077973e+03
  1427.000   4.48476069e+03
  1427.500   4.43884911e+03
  1428.000   4.39307963e+03
  1428.500   4.34748549e+03
  1429.000   4.30209856e+03
  1429.500   4.25694926e+03
  1430.000   4.21206661e+03
  1430.500   4.16747815e+03
  1431.000   4.12321000e+03
  1431.500   4.07928684e+03
  1432.000   4.03573192e+03
  1432.500   3.99256708e+03
  1433.000   3.94981279e+03
  1433.500   3.90748814e+03
  1434.000   3.86561089e+03
  1434.500   3.82419751e+03
  1435.000   3.78326318e+03
  1435.500   3.74282188e+03
  1436.000   3.70288637e+03
  1436.500   3.66346829e+03
  1437.000   3.62457813e+03
  1437.500   3.58622534e+03
  1438.000   3.54841835e+03
  1438.500   3.51116459e+03
  1439.000   3.47447056e+03
  1439.500   3.43834187e+03
  1440.000   3.40278326e+03
  1440.500   3.36779869e+03
  1441.000   3.33339131e+03
  1441.500   3.29956359e+03
  1442.000   3.26631728e+03
  1442.500   3.23365347e+03
  1443.000   3.20157268e+03
  1443.500   3.17007483e+03
  1444.000   3.13915928e+03
  1444.500   3.10882493e+03
  1445.000   3.07907018e+03
  1445.500   3.04989298e+03
  1446.000   3.02129090e+03
  1446.500   2.99326109e+03
  1447.000   2.96580037e+03
  1447.500   2.93890523e+03
  1448.000   2.91257184e+03
  1448.500   2.88679608e+03
  1449.000   2.86157361e+03
  1449.500   2.83689980e+03
  1450.000   2.81276983e+03
  1450.500   2.78917867e+03
  1451.000   2.76612108e+03
  1451.500   2.74359166e+03
  1452.000   2.72158486e+03
  1452.500   2.70009496e+03
  1453.000   2.67911610e+03
  1453.500   2.65864232e+03
  1454.000   2.63866748e+03
  1454.500   2.61918538e+03
  1455.000   2.60018966e+03
  1455.500   2.58167390e+03
  1456.000   2.56363152e+03
  1456.500   2.54605587e+03
  1457.000   2.52894017e+03
  1457.500   2.51227757e+03
  1458.000   2.49606106e+03
  1458.500   2.48028355e+03
  1459.000   2.46493782e+03
  1459.500   2.45001652e+03
  1460.000   2.43551218e+03
  1460.500   2.42141718e+03
  1461.000   2.40772376e+03
  1461.500   2.39442399e+03
  1462.000   2.38150978e+03
  1462.500   2.36897288e+03
  1463.000   2.35680482e+03
  1463.500   2.34499697e+03
  1464.000   2.33354045e+03
  1464.500   2.32242619e+03
  1465.000   2.31164488e+03
  1465.500   2.30118696e+03
  1466.000   2.29104263e+03
  1466.500   2.28120183e+03
  1467.000   2.27165422e+03
  1467.500   2.26238919e+03
  1468.000   2.25339584e+03
  1468.500   2.24466299e+03
  1469.000   2.23617917e+03
  1469.500   2.22793259e+03
  1470.000   2.21991119e+03
  1470.500   2.21210261e+03
  1471.000   2.20449419e+03
  1471.500   2.19707299e+03
  1472.000   2.18982581e+03
  1472.500   2.18273915e+03
  1473.000   2.17579930e+03
  1473.500   2.16899228e+03
  1474.000   2.16230390e+03
  1474.500   2.15571980e+03
  1475.000   2.14922544e+03
  1475.500   2.14280611e+03
  1476.000   2.13644704e+03
  1476.500   2.13013334e+03
  1477.000   2.12385012e+03
  1477.500   2.11758245e+03
  1478.000   2.11131548e+03
  1478.500   2.10503442e+03
  1479.000   2.09872463e+03
  1479.500   2.09237163e+03
  1480.000   2.08596120e+03
  1480.500   2.07947937e+03
  1481.000   2.07291251e+03
  1481.500   2.06624739e+03
  1482.000   2.05947119e+03
  1482.500   2.05257161e+03
  1483.000   2.04553684e+03
  1483.500   2.03835569e+03
  1484.000   2.03101760e+03
  1484.500   2.02351267e+03
  1485.000   2.01583172e+03
  1485.500   2.00796634e+03
  1486.000   1.99990889e+03
  1486.500   1.99165257e+03
  1487.000   1.98319141e+03
  1487.500   1.97452033e+03
  1488.000   1.96563511e+03
  1488.500   1.95653244e+03
  1489.000   1.94720991e+03
  1489.500   1.93766602e+03
  1490.000   1.92790015e+03
  1490.500   1.91791260e+03
  1491.000   1.90770450e+03
  1491.500   1.89727789e+03
  1492.000   1.88663558e+03
  1492.500   1.87578123e+03
  1493.000   1.86471923e+03
  1493.500   1.85345473e+03
  1494.000   1.84199355e+03
  1494.500   1.83034215e+03
  1495.000   1.81850760e+03
  1495.500   1.80649753e+03
  1496.000   1.79432005e+03
  1496.500   1.78198372e+03
  1497.000   1.76949750e+03
  1497.500   1.75687071e+03
  1498.000   1.74411294e+03
  1498.500   1.73123403e+03
  1499.000   1.71824400e+03
  1499.500   1.70515302e+03
  1500.000   1.69197134e+03
  1500.500   1.67870926e+03
  1501.000   1.66537709e+03
  1501.500   1.65198507e+03
  1502.000   1.63854339e+03
  1502.500   1.62506209e+03
  1503.000   1.61155109e+03
  1503.500   1.59802011e+03
  1504.000   1.58447864e+03
  1504.500   1.57093595e+03
  1505.000   1.55740104e+03
  1505.500   1.54388264e+03
  1506.000   1.53038917e+03
  1506.500   1.51692871e+03
  1507.000   1.50350905e+03
  1507.500   1.49013762e+03
  1508.000   1.47682150e+03
  1508.500   1.46356742e+03
  1509.000   1.45038177e+03
  1509.500   1.43727054e+03
  1510.000   1.42423940e+03
  1510.500   1.41129364e+03
  1511.000   1.39843821e+03
  1511.500   1.38567768e+03
  1512.000   1.37301630e+03
  1512.500   1.36045798e+03
  1513.000   1.34800628e+03
  1513.500   1.33566444e+03
  1514.000   1.32343540e+03
  1514.500   1.31132176e+03
  1515.000   1.29932587e+03
  1515.500   1.28744976e+03
  1516.000   1.27569519e+03
  1516.500   1.26406366e+03
  1517.000   1.25255643e+03
  1517.500   1.24117450e+03
  1518.000   1.22991865e+03
  1518.500   1.21878944e+03
  1519.000   1.20778724e+03
  1519.500   1.19691219e+03
  1520.000   1.18616430e+03
  1520.500   1.17554336e+03
  1521.000   1.16504903e+03
  1521.500   1.15468081e+03
  1522.000   1.14443808e+03
  1522.500   1.13432007e+03
  1523.000   1.12432593e+03
  1523.500   1.11445466e+03
  1524.000   1.10470521e+03
  1524.500   1.09507642e+03
  1525.000   1.08556706e+03
  1525.500   1.07617585e+03
  1526.000   1.06690143e+03
  1526.500   1.05774242e+03
  1527.000   1.04869737e+03
  1527.500   1.03976482e+03
  1528.000   1.03094329e+03
  1528.500   1.02223126e+03
  1529.000   1.01362722e+03
  1529.500   1.00512965e+03
  1530.000   9.96737026e+02
  1530.500   9.88447846e+02
  1531.000   9.80260604e+02
  1531.500   9.72173818e+02
  1532.000   9.64186024e+02
  1532.500   9.56295784e+02
  1533.000   9.48501684e+02
  1533.500   9.40802341e+02
  1534.000   9.33196404e+02
  1534.500   9.25682555e+02
  1535.000   9.18259509e+02
  1535.500   9.10926021e+02
  1536.000   9.03680877e+02
  1536.500   8.96522905e+02
  1537.000   8.89450967e+02
  1537.500   8.82463960e+02
  1538.000   8.75560820e+02
  1538.500   8.68740515e+02
  1539.000   8.62002047e+02
  1539.500   8.55344451e+02
  1540.000   8.48766793e+02
  1540.500   8.42268167e+02
  1541.000   8.35847695e+02
  1541.500   8.29504524e+02
  1542.000   8.23237824e+02
  1542.500   8.17046786e+02
  1543.000   8.10930621e+02
  1543.500   8.04888556e+02
  1544.000   7.98919834e+02
  1544.500   7.93023710e+02
  1545.000   7.87199448e+02
  1545.500   7.81446324e+02
  1546.000   7.75763618e+02
  1546.500   7.70150617e+02
  1547.000   7.64606607e+02
  1547.500   7.59130881e+02
  1548.000   7.53722727e+02
  1548.500   7.48381433e+02
  1549.000   7.43106285e+02
  1549.500   7.37896562e+02
  1550.000   7.32751541e+02
  1550.500   7.27670489e+02
  1551.000   7.22652669e+02
  1551.500   7.17697333e+02
  1552.000   7.12803726e+02
  1552.500   7.07971085e+02
  1553.000   7.03198636e+02
  1553.500   6.98485595e+02
  1554.000   6.93831170e+02
  1554.500   6.89234559e+02
  1555.000   6.84694950e+02
  1555.500   6.80211522e+02
  1556.000   6.75783447e+02
  1556.500   6.71409887e+02
  1557.000   6.67089996e+02
  1557.500   6.62822924e+02
  1558.000   6.58607813e+02
  1558.500   6.54443802e+02
  1559.000   6.50330024e+02
  1559.500   6.46265610e+02
  1560.000   6.42249692e+02
  1560.500   6.38281398e+02
  1561.000   6.34359861e+02
  1561.500   6.30484215e+02
  1562.000   6.26653597e+02
  1562.500   6.22867153e+02
  1563.000   6.19124034e+02
  1563.500   6.15423400e+02
  1564.000   6.11764422e+02
  1564.500   6.08146284e+02
  1565.000   6.04568182e+02
  1565.500   6.01029329e+02
  1566.000   5.97528952e+02
  1566.500   5.94066300e+02
  1567.000   5.90640640e+02
  1567.500   5.87251258e+02
  1568.000   5.83897464e+02
  1568.500   5.80578593e+02
  1569.000   5.77294002e+02
  1569.500   5.74043073e+02
  1570.000   5.70825215e+02
  1570.500   5.67639866e+02
  1571.000   5.64486487e+02
  1571.500   5.61364570e+02
  1572.000   5.58273633e+02
  1572.500   5.55213223e+02
  1573.000   5.52182916e+02
  1573.500   5.49182314e+02
  1574.000   5.46211047e+02
  1574.500   5.43268772e+02
  1575.000   5.40355174e+02
  1575.500   5.37469962e+02
  1576.000   5.34612871e+02
  1576.500   5.31783660e+02
  1577.000   5.28982110e+02
  1577.500   5.26208025e+02
  1578.000   5.23461231e+02
  1578.500   5.20741572e+02
  1579.000   5.18048911e+02
  1579.500   5.15383129e+02
  1580.000   5.12744122e+02
  1580.500   5.10131800e+02
  1581.000   5.07546088e+02
  1581.500   5.04986923e+02
  1582.000   5.02454251e+02
  1582.500   4.99948030e+02
  1583.000   4.97468223e+02
  1583.500   4.95014804e+02
  1584.000   4.92587752e+02
  1584.500   4.90187049e+02
  1585.000   4.87812683e+02
  1585.500   4.85464646e+02
  1586.000   4.83142931e+02
  1586.500   4.80847531e+02
  1587.000   4.78578444e+02
  1587.500   4.76335665e+02
  1588.000   4.74119189e+02
  1588.500   4.71929012e+02
  1589.000   4.69765126e+02
  1589.500   4.67627524e+02
  1590.000   4.65516195e+02
  1590.500   4.63431126e+02
  1591.000   4.61372303e+02
  1591.500   4.59339707e+02
  1592.000   4.57333319e+02
  1592.500   4.55353115e+02
  1593.000   4.53399070e+02
  1593.500   4.51471153e+02
  1594.000   4.49569335e+02
  1594.500   4.47693581e+02
  1595.000   4.45843854e+02
  1595.500   4.44020115e+02
  1596.000   4.42222323e+02
  1596.500   4.40450436e+02
  1597.000   4.38704407e+02
  1597.500   4.36984190e+02
  1598.000   4.35289737e+02
  1598.500   4.33621000e+02
  1599.000   4.31977927e+02
  1599.500   4.30360468e+02
  1600.000   4.28768572e+02
  1600.500   4.27202188e+02
  1601.000   4.25661265e+02
  1601.500   4.24145751e+02
  1602.000   4.22655596e+02
  1602.500   4.21190752e+02
  1603.000   4.19751169e+02
  1603.500   4.18336801e+02
  1604.000   4.16947603e+02
  1604.500   4.15583530e+02
  1605.000   4.14244543e+02
  1605.500   4.12930600e+02
  1606.000   4.11641667e+02
  1606.500   4.10377708e+02
  1607.000   4.09138693e+02
  1607.500   4.07924594e+02
  1608.000   4.06735386e+02
  1608.500   4.05571047e+02
  1609.000   4.04431561e+02
  1609.500   4.03316914e+02
  1610.000   4.02227095e+02
  1610.500   4.01162100e+02
  1611.000   4.00121927e+02
  1611.500   3.99106580e+02
  1612.000   3.98116065e+02
  1612.500   3.97150396e+02
  1613.000   3.96209590e+02
  1613.500   3.95293670e+02
  1614.000   3.94402662e+02
  1614.500   3.93536600e+02
  1615.000   3.92695522e+02
  1615.500   3.91879471e+02
  1616.000   3.91088495e+02
  1616.500   3.90322651e+02
  1617.000   3.89581997e+02
  1617.500   3.88866601e+02
  1618.000   3.88176535e+02
  1618.500   3.87511875e+02
  1619.000   3.86872707e+02
  1619.500   3.86259121e+02
  1620.000   3.85671214e+02
  1620.500   3.85109087e+02
  1621.000   3.84572850e+02
  1621.500   3.84062618e+02
  1622.000   3.83578513e+02
  1622.500   3.83120663e+02
  1623.000   3.82689203e+02
  1623.500   3.82284275e+02
  1624.000   3.81906025e+02
  1624.500   3.81554609e+02
  1625.000   3.81230186e+02
  1625.500   3.80932926e+02
  1626.000   3.80663002e+02
  1626.500   3.80420595e+02
  1627.000   3.80205893e+02
  1627.500   3.80019089e+02
  1628.000   3.79860385e+02
  1628.500   3.79729987e+02
  1629.000   3.79628110e+02
  1629.500   3.79554973e+02
  1630.000   3.79510804e+02
  1630.500   3.79495835e+02
  1631.000   3.79510306e+02
  1631.500   3.79554462e+02
  1632.000   3.79628555e+02
  1632.500   3.79732842e+02
  1633.000   3.79867588e+02
  1633.500   3.80033062e+02
  1634.000   3.80229538e+02
  1634.500   3.80457297e+02
  1635.000   3.80716624e+02
  1635.500   3.81007811e+02
  1636.000   3.81331152e+02
  1636.500   3.81686949e+02
  1637.000   3.82075506e+02
  1637.500   3.82497131e+02
  1638.000   3.82952138e+02
  1638.500   3.83440844e+02
  1639.000   3.83963566e+02
  1639.500   3.84520630e+02
  1640.000   3.85112358e+02
  1640.500   3.85739080e+02
  1641.000   3.86401124e+02
  1641.500   3.87098820e+02
  1642.000   3.87832501e+02
  1642.500   3.88602498e+02
  1643.000   3.89409144e+02
  1643.500   3.90252769e+02
  1644.000   3.91133705e+02
  1644.500   3.92052280e+02
  1645.000   3.93008821e+02
  1645.500   3.94003651e+02
  1646.000   3.95037089e+02
  1646.500   3.96109453e+02
  1647.000   3.97221052e+02
  1647.500   3.98372192e+02
  1648.000   3.99563171e+02
  1648.500   4.00794281e+02
  1649.000   4.02065804e+02
  1649.500   4.03378013e+02
  1650.000   4.04731173e+02
  1650.500   4.06125537e+02
  1651.000   4.07561343e+02
  1651.500   4.09038821e+02
  1652.000   4.10558181e+02
  1652.500   4.12119621e+02
  1653.000   4.13723320e+02
  1653.500   4.15369441e+02
  1654.000   4.17058125e+02
  1654.500   4.18789493e+02
  1655.000   4.20563640e+02
  1655.500   4.22380641e+02
  1656.000   4.24240542e+02
  1656.500   4.26143359e+02
  1657.000   4.28089080e+02
  1657.500   4.30077659e+02
  1658.000   4.32109015e+02
  1658.500   4.34183029e+02
  1659.000   4.36299543e+02
  1659.500   4.38458356e+02
  1660.000   4.40659218e+02
  1660.500   4.42901835e+02
  1661.000   4.45185855e+02
  1661.500   4.47510875e+02
  1662.000   4.49876429e+02
  1662.500   4.52281991e+02
  1663.000   4.54726964e+02
  1663.500   4.57210682e+02
  1664.000   4.59732403e+02
  1664.500   4.62291303e+02
  1665.000   4.64886475e+02
  1665.500   4.67516922e+02
  1666.000   4.70181551e+02
  1666.500   4.72879171e+02
  1667.000   4.75608486e+02
  1667.500   4.78368091e+02
  1668.000   4.81156465e+02
  1668.500   4.83971970e+02
  1669.000   4.86812841e+02
  1669.500   4.89677185e+02
  1670.000   4.92562977e+02
  1670.500   4.95468051e+02
  1671.000   4.98390101e+02
  1671.500   5.01326674e+02
  1672.000   5.04275171e+02
  1672.500   5.07232837e+02
  1673.000   5.10196766e+02
  1673.500   5.13163897e+02
  1674.000   5.16131009e+02
  1674.500   5.19094728e+02
  1675.000   5.22051522e+02
  1675.500   5.24997705e+02
  1676.000   5.27929441e+02
  1676.500   5.30842742e+02
  1677.000   5.33733480e+02
  1677.500   5.36597387e+02
  1678.000   5.39430066e+02
  1678.500   5.42226994e+02
  1679.000   5.44983538e+02
  1679.500   5.47694961e+02
  1680.000   5.50356436e+02
  1680.500   5.52963058e+02
  1681.000   5.55509861e+02
  1681.500   5.57991829e+02
  1682.000   5.60403918e+02
  1682.500   5.62741073e+02
  1683.000   5.64998244e+02
  1683.500   5.67170409e+02
  1684.000   5.69252593e+02
  1684.500   5.71239892e+02
  1685.000   5.73127493e+02
  1685.500   5.74910695e+02
  1686.000   5.76584937e+02
  1686.500   5.78145815e+02
  1687.000   5.79589108e+02
  1687.500   5.80910798e+02
  1688.000   5.82107095e+02
  1688.500   5.83174454e+02
  1689.000   5.84109598e+02
  1689.500   5.84909534e+02
  1690.000   5.85571573e+02
  1690.500   5.86093345e+02
  1691.000   5.86472812e+02
  1691.500   5.86708282e+02
  1692.000   5.86798418e+02
  1692.500   5.86742248e+02
  1693.000   5.86539168e+02
  1693.500   5.86188949e+02
  1694.000   5.85691736e+02
  1694.500   5.85048047e+02
  1695.000   5.84258771e+02
  1695.500   5.83325163e+02
  1696.000   5.82248833e+02
  1696.500   5.81031740e+02
  1697.000   5.79676177e+02
  1697.500   5.78184758e+02
  1698.000   5.76560402e+02
  1698.500   5.74806317e+02
  1699.000   5.72925981e+02
  1699.500   5.70923121e+02
  1700.000   5.68801691e+02
  1700.500   5.66565856e+02
  1701.000   5.64219961e+02
  1701.500   5.61768516e+02
  1702.000   5.59216168e+02
  1702.500   5.56567682e+02
  1703.000   5.53827913e+02
  1703.500   5.51001788e+02
  1704.000   5.48094282e+02
  1704.500   5.45110396e+02
  1705.000   5.42055138e+02
  1705.500   5.38933501e+02
  1706.000   5.35750445e+02
  1706.500   5.32510881e+02
  1707.000   5.29219650e+02
  1707.500   5.25881512e+02
  1708.000   5.22501128e+02
  1708.500   5.19083048e+02
  1709.000   5.15631702e+02
  1709.500   5.12151385e+02
  1710.000   5.08646247e+02
  1710.500   5.05120292e+02
  1711.000   5.01577362e+02
  1711.500   4.98021137e+02
  1712.000   4.94455128e+02
  1712.500   4.90882674e+02
  1713.000   4.87306938e+02
  1713.500   4.83730908e+02
  1714.000   4.80157394e+02
  1714.500   4.76589028e+02
  1715.000   4.73028265e+02
  1715.500   4.69477388e+02
  1716.000   4.65938503e+02
  1716.500   4.62413552e+02
  1717.000   4.58904305e+02
  1717.500   4.55412375e+02
  1718.000   4.51939216e+02
  1718.500   4.48486127e+02
  1719.000   4.45054265e+02
  1719.500   4.41644642e+02
  1720.000   4.38258136e+02
  1720.500   4.34895498e+02
  1721.000   4.31557355e+02
  1721.500   4.28244218e+02
  1722.000   4.24956491e+02
  1722.500   4.21694477e+02
  1723.000   4.18458384e+02
  1723.500   4.15248331e+02
  1724.000   4.12064361e+02
  1724.500   4.08906441e+02
  1725.000   4.05774473e+02
  1725.500   4.02668302e+02
  1726.000   3.99587720e+02
  1726.500   3.96532475e+02
  1727.000   3.93502276e+02
  1727.500   3.90496799e+02
  1728.000   3.87515698e+02
  1728.500   3.84558605e+02
  1729.000   3.81625139e+02
  1729.500   3.78714908e+02
  1730.000   3.75827520e+02
  1730.500   3.72962583e+02
  1731.000   3.70119709e+02
  1731.500   3.67298521e+02
  1732.000   3.64498656e+02
  1732.500   3.61719764e+02
  1733.000   3.58961519e+02
  1733.500   3.56223613e+02
  1734.000   3.53505762e+02
  1734.500   3.50807708e+02
  1735.000   3.48129219e+02
  1735.500   3.45470092e+02
  1736.000   3.42830149e+02
  1736.500   3.40209242e+02
  1737.000   3.37607251e+02
  1737.500   3.35024082e+02
  1738.000   3.32459669e+02
  1738.500   3.29913972e+02
  1739.000   3.27386976e+02
  1739.500   3.24878687e+02
  1740.000   3.22389135e+02
  1740.500   3.19918369e+02
  1741.000   3.17466458e+02
  1741.500   3.15033485e+02
  1742.000   3.12619548e+02
  1742.500   3.10224759e+02
  1743.000   3.07849240e+02
  1743.500   3.05493119e+02
  1744.000   3.03156534e+02
  1744.500   3.00839627e+02
  1745.000   2.98542540e+02
  1745.500   2.96265418e+02
  1746.000   2.94008407e+02
  1746.500   2.91771648e+02
  1747.000   2.89555280e+02
  1747.500   2.87359434e+02
  1748.000   2.85184238e+02
  1748.500   2.83029812e+02
  1749.000   2.80896265e+02
  1749.500   2.78783698e+02
  1750.000   2.76692203e+02
  1750.500   2.74621859e+02
  1751.000   2.72572733e+02
  1751.500   2.70544884e+02
  1752.000   2.68538354e+02
  1752.500   2.66553175e+02
  1753.000   2.64589366e+02
  1753.500   2.62646932e+02
  1754.000   2.60725868e+02
  1754.500   2.58826152e+02
  1755.000   2.56947754e+02
  1755.500   2.55090628e+02
  1756.000   2.53254718e+02
  1756.500   2.51439957e+02
  1757.000   2.49646263e+02
  1757.500   2.47873545e+02
  1758.000   2.46121704e+02
  1758.500   2.44390626e+02
  1759.000   2.42680190e+02
  1759.500   2.40990266e+02
  1760.000   2.39320713e+02
  1760.500   2.37671384e+02
  1761.000   2.36042122e+02
  1761.500   2.34432766e+02
  1762.000   2.32843144e+02
  1762.500   2.31273081e+02
  1763.000   2.29722394e+02
  1763.500   2.28190896e+02
  1764.000   2.26678395e+02
  1764.500   2.25184692e+02
  1765.000   2.23709589e+02
  1765.500   2.22252878e+02
  1766.000   2.20814354e+02
  1766.500   2.19393805e+02
  1767.000   2.17991019e+02
  1767.500   2.16605779e+02
  1768.000   2.15237870e+02
  1768.500   2.13887074e+02
  1769.000   2.12553170e+02
  1769.500   2.11235939e+02
  1770.000   2.09935160e+02
  1770.500   2.08650614e+02
  1771.000   2.07382078e+02
  1771.500   2.06129332e+02
  1772.000   2.04892158e+02
  1772.500   2.03670334e+02
  1773.000   2.02463643e+02
  1773.500   2.01271868e+02
  1774.000   2.00094793e+02
  1774.500   1.98932201e+02
  1775.000   1.97783882e+02
  1775.500   1.96649622e+02
  1776.000   1.95529212e+02
  1776.500   1.94422444e+02
  1777.000   1.93329113e+02
  1777.500   1.92249014e+02
  1778.000   1.91181945e+02
  1778.500   1.90127707e+02
  1779.000   1.89086102e+02
  1779.500   1.88056936e+02
  1780.000   1.87040017e+02
  1780.500   1.86035153e+02
  1781.000   1.85042158e+02
  1781.500   1.84060846e+02
  1782.000   1.83091034e+02
  1782.500   1.82132543e+02
  1783.000   1.81185194e+02
  1783.500   1.80248813e+02
  1784.000   1.79323228e+02
  1784.500   1.78408268e+02
  1785.000   1.77503766e+02
  1785.500   1.76609558e+02
  1786.000   1.75725481e+02
  1786.500   1.74851376e+02
  1787.000   1.73987085e+02
  1787.500   1.73132454e+02
  1788.000   1.72287332e+02
  1788.500   1.71451568e+02
  1789.000   1.70625015e+02
  1789.500   1.69807530e+02
  1790.000   1.68998969e+02
  1790.500   1.68199193e+02
  1791.000   1.67408064e+02
  1791.500   1.66625448e+02
  1792.000   1.65851211e+02
  1792.500   1.65085224e+02
  1793.000   1.64327358e+02
  1793.500   1.63577486e+02
  1794.000   1.62835486e+02
  1794.500   1.62101235e+02
  1795.000   1.61374615e+02
  1795.500   1.60655507e+02
  1796.000   1.59943797e+02
  1796.500   1.59239371e+02
  1797.000   1.58542119e+02
  1797.500   1.57851930e+02
  1798.000   1.57168697e+02
  1798.500   1.56492316e+02
  1799.000   1.55822683e+02
  1799.500   1.55159695e+02
  1800.000   1.54503254e+02
  1800.500   1.53853260e+02
  1801.000   1.53209619e+02
  1801.500   1.52572235e+02
  1802.000   1.51941015e+02
  1802.500   1.51315869e+02
  1803.000   1.50696706e+02
  1803.500   1.50083439e+02
  1804.000   1.49475981e+02
  1804.500   1.48874248e+02
  1805.000   1.48278156e+02
  1805.500   1.47687624e+02
  1806.000   1.47102570e+02
  1806.500   1.46522917e+02
  1807.000   1.45948586e+02
  1807.500   1.45379501e+02
  1808.000   1.44815588e+02
  1808.500   1.44256774e+02
  1809.000   1.43702985e+02
  1809.500   1.43154152e+02
  1810.000   1.42610204e+02
  1810.500   1.42071073e+02
  1811.000   1.41536693e+02
  1811.500   1.41006996e+02
  1812.000   1.40481919e+02
  1812.500   1.39961397e+02
  1813.000   1.39445368e+02
  1813.500   1.38933770e+02
  1814.000   1.38426544e+02
  1814.500   1.37923629e+02
  1815.000   1.37424967e+02
  1815.500   1.36930501e+02
  1816.000   1.36440175e+02
  1816.500   1.35953933e+02
  1817.000   1.35471722e+02
  1817.500   1.34993486e+02
  1818.000   1.34519174e+02
  1818.500   1.34048735e+02
  1819.000   1.33582117e+02
  1819.500   1.33119271e+02
  1820.000   1.32660146e+02
  1820.500   1.32204697e+02
  1821.000   1.31752874e+02
  1821.500   1.31304631e+02
  1822.000   1.30859922e+02
  1822.500   1.30418703e+02
  1823.000   1.29980928e+02
  1823.500   1.29546555e+02
  1824.000   1.29115540e+02
  1824.500   1.28687842e+02
  1825.000   1.28263419e+02
  1825.500   1.27842229e+02
  1826.000   1.27424234e+02
  1826.500   1.27009393e+02
  1827.000   1.26597668e+02
  1827.500   1.26189020e+02
  1828.000   1.25783413e+02
  1828.500   1.25380808e+02
  1829.000   1.24981170e+02
  1829.500   1.24584464e+02
  1830.000   1.24190653e+02
  1830.500   1.23799703e+02
  1831.000   1.23411580e+02
  1831.500   1.23026250e+02
  1832.000   1.22643681e+02
  1832.500   1.22263841e+02
  1833.000   1.21886696e+02
  1833.500   1.21512216e+02
  1834.000   1.21140369e+02
  1834.500   1.20771126e+02
  1835.000   1.20404455e+02
  1835.500   1.20040328e+02
  1836.000   1.19678716e+02
  1836.500   1.19319589e+02
  1837.000   1.18962920e+02
  1837.500   1.18608681e+02
  1838.000   1.18256844e+02
  1838.500   1.17907383e+02
  1839.000   1.17560271e+02
  1839.500   1.17215481e+02
  1840.000   1.16872989e+02
  1840.500   1.16532768e+02
  1841.000   1.16194795e+02
  1841.500   1.15859043e+02
  1842.000   1.15525489e+02
  1842.500   1.15194110e+02
  1843.000   1.14864881e+02
  1843.500   1.14537780e+02
  1844.000   1.14212783e+02
  1844.500   1.13889868e+02
  1845.000   1.13569013e+02
  1845.500   1.13250196e+02
  1846.000   1.12933396e+02
  1846.500   1.12618591e+02
  1847.000   1.12305760e+02
  1847.500   1.11994883e+02
  1848.000   1.11685940e+02
  1848.500   1.11378910e+02
  1849.000   1.11073774e+02
  1849.500   1.10770511e+02
  1850.000   1.10469104e+02
  1850.500   1.10169534e+02
  1851.000   1.09871780e+02
  1851.500   1.09575826e+02
  1852.000   1.09281652e+02
  1852.500   1.08989242e+02
  1853.000   1.08698577e+02
  1853.500   1.08409640e+02
  1854.000   1.08122414e+02
  1854.500   1.07836882e+02
  1855.000   1.07553027e+02
  1855.500   1.07270833e+02
  1856.000   1.06990283e+02
  1856.500   1.06711362e+02
  1857.000   1.06434054e+02
  1857.500   1.06158343e+02
  1858.000   1.05884214e+02
  1858.500   1.05611651e+02
  1859.000   1.05340640e+02
  1859.500   1.05071166e+02
  1860.000   1.04803214e+02
  1860.500   1.04536770e+02
  1861.000   1.04271820e+02
  1861.500   1.04008349e+02
  1862.000   1.03746344e+02
  1862.500   1.03485792e+02
  1863.000   1.03226678e+02
  1863.500   1.02968990e+02
  1864.000   1.02712714e+02
  1864.500   1.02457837e+02
  1865.000   1.02204347e+02
  1865.500   1.01952231e+02
  1866.000   1.01701477e+02
  1866.500   1.01452072e+02
  1867.000   1.01204003e+02
  1867.500   1.00957260e+02
  1868.000   1.00711830e+02
  1868.500   1.00467702e+02
  1869.000   1.00224863e+02
  1869.500   9.99833033e+01
  1870.000   9.97430106e+01
  1870.500   9.95039741e+01
  1871.000   9.92661827e+01
  1871.500   9.90296257e+01
  1872.000   9.87942922e+01
  1872.500   9.85601717e+01
  1873.000   9.83272538e+01
  1873.500   9.80955281e+01
  1874.000   9.78649844e+01
  1874.500   9.76356125e+01
  1875.000   9.74074027e+01
  1875.500   9.71803449e+01
  1876.000   9.69544295e+01
  1876.500   9.67296468e+01
  1877.000   9.65059874e+01
  1877.500   9.62834419e+01
  1878.000   9.60620010e+01
  1878.500   9.58416555e+01
  1879.000   9.56223964e+01
  1879.500   9.54042147e+01
  1880.000   9.51871016e+01
  1880.500   9.49710483e+01
  1881.000   9.47560462e+01
  1881.500   9.45420868e+01
  1882.000   9.43291615e+01
  1882.500   9.41172621e+01
  1883.000   9.39063803e+01
  1883.500   9.36965079e+01
  1884.000   9.34876369e+01
  1884.500   9.32797593e+01
  1885.000   9.30728672e+01
  1885.500   9.28669529e+01
  1886.000   9.26620085e+01
  1886.500   9.24580265e+01
  1887.000   9.22549994e+01
  1887.500   9.20529196e+01
  1888.000   9.18517799e+01
  1888.500   9.16515729e+01
  1889.000   9.14522915e+01
  1889.500   9.12539284e+01
  1890.000   9.10564767e+01
  1890.500   9.08599294e+01
  1891.000   9.06642795e+01
  1891.500   9.04695203e+01
  1892.000   9.02756450e+01
  1892.500   9.00826469e+01
  1893.000   8.98905194e+01
  1893.500   8.96992560e+01
  1894.000   8.95088503e+01
  1894.500   8.93192958e+01
  1895.000   8.91305861e+01
  1895.500   8.89427151e+01
  1896.000   8.87556766e+01
  1896.500   8.85694644e+01
  1897.000   8.83840724e+01
  1897.500   8.81994947e+01
  1898.000   8.80157253e+01
  1898.500   8.78327584e+01
  1899.000   8.76505880e+01
  1899.500   8.74692086e+01
  1900.000   8.72886143e+01
  1900.500   8.71087996e+01
  1901.000   8.69297588e+01
  1901.500   8.67514865e+01
  1902.000   8.65739771e+01
  1902.500   8.63972253e+01
  1903.000   8.62212258e+01
  1903.500   8.60459731e+01
  1904.000   8.58714621e+01
  1904.500   8.56976875e+01
  1905.000   8.55246443e+01
  1905.500   8.53523273e+01
  1906.000   8.51807315e+01
  1906.500   8.50098520e+01
  1907.000   8.48396836e+01
  1907.500   8.46702217e+01
  1908.000   8.45014613e+01
  1908.500   8.43333976e+01
  1909.000   8.41660259e+01
  1909.500   8.39993415e+01
  1910.000   8.38333397e+01
  1910.500   8.36680159e+01
  1911.000   8.35033656e+01
  1911.500   8.33393842e+01
  1912.000   8.31760672e+01
  1912.500   8.30134103e+01
  1913.000   8.28514089e+01
  1913.500   8.26900589e+01
  1914.000   8.25293558e+01
  1914.500   8.23692953e+01
  1915.000   8.22098733e+01
  1915.500   8.20510856e+01
  1916.000   8.18929281e+01
  1916.500   8.17353965e+01
  1917.000   8.15784868e+01
  1917.500   8.14221951e+01
  1918.000   8.12665172e+01
  1918.500   8.11114493e+01
  1919.000   8.09569875e+01
  1919.500   8.08031278e+01
  1920.000   8.06498663e+01
  1920.500   8.04971993e+01
  1921.000   8.03451231e+01
  1921.500   8.01936338e+01
  1922.000   8.00427277e+01
  1922.500   7.98924011e+01
  1923.000   7.97426505e+01
  1923.500   7.95934722e+01
  1924.000   7.94448626e+01
  1924.500   7.92968182e+01
  1925.000   7.91493355e+01
  1925.500   7.90024109e+01
  1926.000   7.88560410e+01
  1926.500   7.87102225e+01
  1927.000   7.85649519e+01
  1927.500   7.84202258e+01
  1928.000   7.82760410e+01
  1928.500   7.81323941e+01
  1929.000   7.79892818e+01
  1929.500   7.78467009e+01
  1930.000   7.77046482e+01
  1930.500   7.75631205e+01
  1931.000   7.74221146e+01
  1931.500   7.72816275e+01
  1932.000   7.71416559e+01
  1932.500   7.70021969e+01
  1933.000   7.68632473e+01
  1933.500   7.67248042e+01
  1934.000   7.65868645e+01
  1934.500   7.64494252e+01
  1935.000   7.63124835e+01
  1935.500   7.61760363e+01
  1936.000   7.60400809e+01
  1936.500   7.59046142e+01
  1937.000   7.57696335e+01
  1937.500   7.56351360e+01
  1938.000   7.55011188e+01
  1938.500   7.53675791e+01
  1939.000   7.52345142e+01
  1939.500   7.51019213e+01
  1940.000   7.49697978e+01
  1940.500   7.48381410e+01
  1941.000   7.47069481e+01
  1941.500   7.45762166e+01
  1942.000   7.44459438e+01
  1942.500   7.43161271e+01
  1943.000   7.41867639e+01
  1943.500   7.40578517e+01
  1944.000   7.39293880e+01
  1944.500   7.38013702e+01
  1945.000   7.36737957e+01
  1945.500   7.35466623e+01
  1946.000   7.34199673e+01
  1946.500   7.32937083e+01
  1947.000   7.31678830e+01
  1947.500   7.30424889e+01
  1948.000   7.29175236e+01
  1948.500   7.27929848e+01
  1949.000   7.26688702e+01
  1949.500   7.25451773e+01
  1950.000   7.24219040e+01
  1950.500   7.22990479e+01
  1951.000   7.21766068e+01
  1951.500   7.20545783e+01
  1952.000   7.19329603e+01
  1952.500   7.18117506e+01
  1953.000   7.16909469e+01
  1953.500   7.15705470e+01
  1954.000   7.14505489e+01
  1954.500   7.13309503e+01
  1955.000   7.12117491e+01
  1955.500   7.10929432e+01
  1956.000   7.09745305e+01
  1956.500   7.08565090e+01
  1957.000   7.07388764e+01
  1957.500   7.06216309e+01
  1958.000   7.05047703e+01
  1958.500   7.03882927e+01
  1959.000   7.02721959e+01
  1959.500   7.01564781e+01
  1960.000   7.00411373e+01
  1960.500   6.99261714e+01
  1961.000   6.98115787e+01
  1961.500   6.96973570e+01
  1962.000   6.95835045e+01
  1962.500   6.94700193e+01
  1963.000   6.93568995e+01
  1963.500   6.92441433e+01
  1964.000   6.91317487e+01
  1964.500   6.90197139e+01
  1965.000   6.89080371e+01
  1965.500   6.87967165e+01
  1966.000   6.86857502e+01
  1966.500   6.85751365e+01
  1967.000   6.84648736e+01
  1967.500   6.83549597e+01
  1968.000   6.82453930e+01
  1968.500   6.81361718e+01
  1969.000   6.80272944e+01
  1969.500   6.79187591e+01
  1970.000   6.78105641e+01
  1970.500   6.77027078e+01
  1971.000   6.75951885e+01
  1971.500   6.74880045e+01
  1972.000   6.73811541e+01
  1972.500   6.72746357e+01
  1973.000   6.71684477e+01
  1973.500   6.70625884e+01
  1974.000   6.69570563e+01
  1974.500   6.68518497e+01
  1975.000   6.67469671e+01
  1975.500   6.66424068e+01
  1976.000   6.65381673e+01
  1976.500   6.64342470e+01
  1977.000   6.63306445e+01
  1977.500   6.62273581e+01
  1978.000   6.61243864e+01
  1978.500   6.60217278e+01
  1979.000   6.59193808e+01
  1979.500   6.58173439e+01
  1980.000   6.57156157e+01
  1980.500   6.56141946e+01
  1981.000   6.55130793e+01
  1981.500   6.54122683e+01
  1982.000   6.53117600e+01
  1982.500   6.52115531e+01
  1983.000   6.51116462e+01
  1983.500   6.50120379e+01
  1984.000   6.49127267e+01
  1984.500   6.48137112e+01
  1985.000   6.47149901e+01
  1985.500   6.46165621e+01
  1986.000   6.45184256e+01
  1986.500   6.44205794e+01
  1987.000   6.43230221e+01
  1987.500   6.42257524e+01
  1988.000   6.41287689e+01
  1988.500   6.40320704e+01
  1989.000   6.39356554e+01
  1989.500   6.38395228e+01
  1990.000   6.37436712e+01
  1990.500   6.36480993e+01
  1991.000   6.35528059e+01
  1991.500   6.34577896e+01
  1992.000   6.33630493e+01
  1992.500   6.32685836e+01
  1993.000   6.31743913e+01
  1993.500   6.30804712e+01
  1994.000   6.29868221e+01
  1994.500   6.28934426e+01
  1995.000   6.28003317e+01
  1995.500   6.27074881e+01
  1996.000   6.26149106e+01
  1996.500   6.25225979e+01
  1997.000   6.24305491e+01
  1997.500   6.23387627e+01
  1998.000   6.22472378e+01
  1998.500   6.21559731e+01
  1999.000   6.20649674e+01
  1999.500   6.19742197e+01
  2000.000   6.18837288e+01
  2000.500   6.17934935e+01
  2001.000   6.17035127e+01
  2001.500   6.16137853e+01
  2002.000   6.15243103e+01
  2002.500   6.14350864e+01
  2003.000   6.13461127e+01
  2003.500   6.12573879e+01
  2004.000   6.11689111e+01
  2004.500   6.10806811e+01
  2005.000   6.09926969e+01
  2005.500   6.09049574e+01
  2006.000   6.08174615e+01
  2006.500   6.07302083e+01
  2007.000   6.06431966e+01
  2007.500   6.05564255e+01
  2008.000   6.04698938e+01
  2008.500   6.03836007e+01
  2009.000   6.02975449e+01
  2009.500   6.02117256e+01
  2010.000   6.01261418e+01
  2010.500   6.00407923e+01
  2011.000   5.99556763e+01
  2011.500   5.98707928e+01
  2012.000   5.97861407e+01
  2012.500   5.97017191e+01
  2013.000   5.96175270e+01
  2013.500   5.95335634e+01
  2014.000   5.94498275e+01
  2014.500   5.93663182e+01
  2015.000   5.92830346e+01
  2015.500   5.91999757e+01
  2016.000   5.91171407e+01
  2016.500   5.90345285e+01
  2017.000   5.89521383e+01
  2017.500   5.88699692e+01
  2018.000   5.87880201e+01
  2018.500   5.87062903e+01
  2019.000   5.86247787e+01
  2019.500   5.85434846e+01
  2020.000   5.84624070e+01
  2020.500   5.83815451e+01
  2021.000   5.83008978e+01
  2021.500   5.82204645e+01
  2022.000   5.81402441e+01
  2022.500   5.80602359e+01
  2023.000   5.79804389e+01
  2023.500   5.79008523e+01
  2024.000   5.78214753e+01
  2024.500   5.77423070e+01
  2025.000   5.76633465e+01
  2025.500   5.75845931e+01
  2026.000   5.75060459e+01
  2026.500   5.74277040e+01
  2027.000   5.73495667e+01
  2027.500   5.72716330e+01
  2028.000   5.71939023e+01
  2028.500   5.71163737e+01
  2029.000   5.70390463e+01
  2029.500   5.69619195e+01
  2030.000   5.68849923e+01
  2030.500   5.68082640e+01
  2031.000   5.67317338e+01
  2031.500   5.66554010e+01
  2032.000   5.65792647e+01
  2032.500   5.65033242e+01
  2033.000   5.64275786e+01
  2033.500   5.63520273e+01
  2034.000   5.62766695e+01
  2034.500   5.62015044e+01
  2035.000   5.61265313e+01
  2035.500   5.60517493e+01
  2036.000   5.59771579e+01
  2036.500   5.59027561e+01
  2037.000   5.58285434e+01
  2037.500   5.57545189e+01
  2038.000   5.56806819e+01
  2038.500   5.56070318e+01
  2039.000   5.55335677e+01
  2039.500   5.54602890e+01
  2040.000   5.53871949e+01
  2040.500   5.53142848e+01
  2041.000   5.52415580e+01
  2041.500   5.51690136e+01
  2042.000   5.50966511e+01
  2042.500   5.50244697e+01
  2043.000   5.49524688e+01
  2043.500   5.48806477e+01
  2044.000   5.48090056e+01
  2044.500   5.47375420e+01
  2045.000   5.46662560e+01
  2045.500   5.45951472e+01
  2046.000   5.45242147e+01
  2046.500   5.44534579e+01
  2047.000   5.43828762e+01
  2047.500   5.43124689e+01
  2048.000   5.42422354e+01
  2048.500   5.41721749e+01
  2049.000   5.41022869e+01
  2049.500   5.40325707e+01
  2050.000   5.39630257e+01
  2050.500   5.38936512e+01
  2051.000   5.38244466e+01
  2051.500   5.37554112e+01
  2052.000   5.36865445e+01
  2052.500   5.36178458e+01
  2053.000   5.35493145e+01
  2053.500   5.34809500e+01
  2054.000   5.34127516e+01
  2054.500   5.33447187e+01
  2055.000   5.32768508e+01
  2055.500   5.32091473e+01
  2056.000   5.31416074e+01
  2056.500   5.30742307e+01
  2057.000   5.30070165e+01
  2057.500   5.29399643e+01
  2058.000   5.28730734e+01
  2058.500   5.28063433e+01
  2059.000   5.27397734e+01
  2059.500   5.26733630e+01
  2060.000   5.26071117e+01
  2060.500   5.25410189e+01
  2061.000   5.24750839e+01
  2061.500   5.24093062e+01
  2062.000   5.23436853e+01
  2062.500   5.22782205e+01
  2063.000   5.22129114e+01
  2063.500   5.21477573e+01
  2064.000   5.20827577e+01
  2064.500   5.20179121e+01
  2065.000   5.19532199e+01
  2065.500   5.18886805e+01
  2066.000   5.18242934e+01
  2066.500   5.17600581e+01
  2067.000   5.16959741e+01
  2067.500   5.16320407e+01
  2068.000   5.15682575e+01
  2068.500   5.15046240e+01
  2069.000   5.14411395e+01
  2069.500   5.13778036e+01
  2070.000   5.13146158e+01
  2070.500   5.12515755e+01
  2071.000   5.11886823e+01
  2071.500   5.11259355e+01
  2072.000   5.10633347e+01
  2072.500   5.10008794e+01
  2073.000   5.09385691e+01
  2073.500   5.08764032e+01
  2074.000   5.08143814e+01
  2074.500   5.07525029e+01
  2075.000   5.06907675e+01
  2075.500   5.06291745e+01
  2076.000   5.05677235e+01
  2076.500   5.05064140e+01
  2077.000   5.04452454e+01
  2077.500   5.03842174e+01
  2078.000   5.03233295e+01
  2078.500   5.02625810e+01
  2079.000   5.02019717e+01
  2079.500   5.01415009e+01
  2080.000   5.00811683e+01
  2080.500   5.00209733e+01
  2081.000   4.99609155e+01
  2081.500   4.99009944e+01
  2082.000   4.98412095e+01
  2082.500   4.97815604e+01
  2083.000   4.97220467e+01
  2083.500   4.96626678e+01
  2084.000   4.96034233e+01
  2084.500   4.95443127e+01
  2085.000   4.94853357e+01
  2085.500   4.94264917e+01
  2086.000   4.93677802e+01
  2086.500   4.93092010e+01
  2087.000   4.92507535e+01
  2087.500   4.91924372e+01
  2088.000   4.91342517e+01
  2088.500   4.90761967e+01
  2089.000   4.90182716e+01
  2089.500   4.89604760e+01
  2090.000   4.89028095e+01
  2090.500   4.88452717e+01
  2091.000   4.87878621e+01
  2091.500   4.87305803e+01
  2092.000   4.86734259e+01
  2092.500   4.86163984e+01
  2093.000   4.85594975e+01
  2093.500   4.85027227e+01
  2094.000   4.84460736e+01
  2094.500   4.83895498e+01
  2095.000   4.83331509e+01
  2095.500   4.82768765e+01
  2096.000   4.82207261e+01
  2096.500   4.81646994e+01
  2097.000   4.81087959e+01
  2097.500   4.80530153e+01
  2098.000   4.79973571e+01
  2098.500   4.79418210e+01
  2099.000   4.78864065e+01
  2099.500   4.78311133e+01
  2100.000   4.77759409e+01
  2100.500   4.77208890e+01
  2101.000   4.76659572e+01
  2101.500   4.76111450e+01
  2102.000   4.75564522e+01
  2102.500   4.75018783e+01
  2103.000   4.74474229e+01
  2103.500   4.73930857e+01
  2104.000   4.73388662e+01
  2104.500   4.72847642e+01
  2105.000   4.72307791e+01
  2105.500   4.71769107e+01
  2106.000   4.71231586e+01
  2106.500   4.70695224e+01
  2107.000   4.70160017e+01
  2107.500   4.69625961e+01
  2108.000   4.69093054e+01
  2108.500   4.68561291e+01
  2109.000   4.68030668e+01
  2109.500   4.67501183e+01
  2110.000   4.66972831e+01
  2110.500   4.66445608e+01
  2111.000   4.65919512e+01
  2111.500   4.65394539e+01
  2112.000   4.64870685e+01
  2112.500   4.64347947e+01
  2113.000   4.63826320e+01
  2113.500   4.63305803e+01
  2114.000   4.62786390e+01
  2114.500   4.62268080e+01
  2115.000   4.61750867e+01
  2115.500   4.61234750e+01
  2116.000   4.60719723e+01
  2116.500   4.60205785e+01
  2117.000   4.59692931e+01
  2117.500   4.59181159e+01
  2118.000   4.58670465e+01
  2118.500   4.58160845e+01
  2119.000   4.57652296e+01
  2119.500   4.57144815e+01
  2120.000   4.56638399e+01
  2120.500   4.56133044e+01
  2121.000   4.55628747e+01
  2121.500   4.55125505e+01
  2122.000   4.54623314e+01
  2122.500   4.54122172e+01
  2123.000   4.53622075e+01
  2123.500   4.53123019e+01
  2124.000   4.52625003e+01
  2124.500   4.52128021e+01
  2125.000   4.51632072e+01
  2125.500   4.51137153e+01
  2126.000   4.50643259e+01
  2126.500   4.50150388e+01
  2127.000   4.49658537e+01
  2127.500   4.49167703e+01
  2128.000   4.48677883e+01
  2128.500   4.48189072e+01
  2129.000   4.47701270e+01
  2129.500   4.47214472e+01
  2130.000   4.46728675e+01
  2130.500   4.46243877e+01
  2131.000   4.45760074e+01
  2131.500   4.45277263e+01
  2132.000   4.44795442e+01
  2132.500   4.44314607e+01
  2133.000   4.43834756e+01
  2133.500   4.43355885e+01
  2134.000   4.42877992e+01
  2134.500   4.42401073e+01
  2135.000   4.41925127e+01
  2135.500   4.41450149e+01
  2136.000   4.40976137e+01
  2136.500   4.40503088e+01
  2137.000   4.40030999e+01
  2137.500   4.39559868e+01
  2138.000   4.39089691e+01
  2138.500   4.38620466e+01
  2139.000   4.38152190e+01
  2139.500   4.37684860e+01
  2140.000   4.37218474e+01
  2140.500   4.36753028e+01
  2141.000   4.36288519e+01
  2141.500   4.35824946e+01
  2142.000   4.35362304e+01
  2142.500   4.34900593e+01
  2143.000   4.34439808e+01
  2143.500   4.33979947e+01
  2144.000   4.33521007e+01
  2144.500   4.33062987e+01
  2145.000   4.32605882e+01
  2145.500   4.32149690e+01
  2146.000   4.31694409e+01
  2146.500   4.31240036e+01
  2147.000   4.30786569e+01
  2147.500   4.30334004e+01
  2148.000   4.29882339e+01
  2148.500   4.29431572e+01
  2149.000   4.28981700e+01
  2149.500   4.28532720e+01
  2150.000   4.28084630e+01
  2150.500   4.27637426e+01
  2151.000   4.27191108e+01
  2151.500   4.26745672e+01
  2152.000   4.26301115e+01
  2152.500   4.25857435e+01
  2153.000   4.25414630e+01
  2153.500   4.24972697e+01
  2154.000   4.24531633e+01
  2154.500   4.24091436e+01
  2155.000   4.23652104e+01
  2155.500   4.23213633e+01
  2156.000   4.22776023e+01
  2156.500   4.22339269e+01
  2157.000   4.21903371e+01
  2157.500   4.21468324e+01
  2158.000   4.21034128e+01
  2158.500   4.20600779e+01
  2159.000   4.20168275e+01
  2159.500   4.19736614e+01
  2160.000   4.19305793e+01
  2160.500   4.18875809e+01
  2161.000   4.18446662e+01
  2161.500   4.18018348e+01
  2162.000   4.17590864e+01
  2162.500   4.17164209e+01
  2163.000   4.16738381e+01
  2163.500   4.16313376e+01
  2164.000   4.15889193e+01
  2164.500   4.15465829e+01
  2165.000   4.15043282e+01
  2165.500   4.14621549e+01
  2166.000   4.14200630e+01
  2166.500   4.13780520e+01
  2167.000   4.13361218e+01
  2167.500   4.12942722e+01
  2168.000   4.12525030e+01
  2168.500   4.12108138e+01
  2169.000   4.11692046e+01
  2169.500   4.11276750e+01
  2170.000   4.10862249e+01
  2170.500   4.10448540e+01
  2171.000   4.10035622e+01
  2171.500   4.09623491e+01
  2172.000   4.09212146e+01
  2172.500   4.08801585e+01
  2173.000   4.08391806e+01
  2173.500   4.07982806e+01
  2174.000   4.07574583e+01
  2174.500   4.07167135e+01
  2175.000   4.06760460e+01
  2175.500   4.06354556e+01
  2176.000   4.05949421e+01
  2176.500   4.05545052e+01
  2177.000   4.05141448e+01
  2177.500   4.04738607e+01
  2178.000   4.04336526e+01
  2178.500   4.03935203e+01
  2179.000   4.03534637e+01
  2179.500   4.03134824e+01
  2180.000   4.02735764e+01
  2180.500   4.02337454e+01
  2181.000   4.01939893e+01
  2181.500   4.01543077e+01
  2182.000   4.01147006e+01
  2182.500   4.00751676e+01
  2183.000   4.00357087e+01
  2183.500   3.99963235e+01
  2184.000   3.99570120e+01
  2184.500   3.99177739e+01
  2185.000   3.98786090e+01
  2185.500   3.98395172e+01
  2186.000   3.98004981e+01
  2186.500   3.97615517e+01
  2187.000   3.97226778e+01
  2187.500   3.96838760e+01
  2188.000   3.96451464e+01
  2188.500   3.96064886e+01
  2189.000   3.95679024e+01
  2189.500   3.95293877e+01
  2190.000   3.94909444e+01
  2190.500   3.94525721e+01
  2191.000   3.94142707e+01
  2191.500   3.93760400e+01
  2192.000   3.93378799e+01
  2192.500   3.92997902e+01
  2193.000   3.92617706e+01
  2193.500   3.92238209e+01
  2194.000   3.91859411e+01
  2194.500   3.91481309e+01
  2195.000   3.91103901e+01
  2195.500   3.90727185e+01
  2196.000   3.90351160e+01
  2196.500   3.89975824e+01
  2197.000   3.89601175e+01
  2197.500   3.89227212e+01
  2198.000   3.88853931e+01
  2198.500   3.88481333e+01
  2199.000   3.88109414e+01
  2199.500   3.87738173e+01
  2200.000   3.87367609e+01
  2200.500   3.86997719e+01
  2201.000   3.86628502e+01
  2201.500   3.86259956e+01
  2202.000   3.85892080e+01
  2202.500   3.85524871e+01
  2203.000   3.85158328e+01
  2203.500   3.84792449e+01
  2204.000   3.84427232e+01
  2204.500   3.84062677e+01
  2205.000   3.83698780e+01
  2205.500   3.83335540e+01
  2206.000   3.82972957e+01
  2206.500   3.82611027e+01
  2207.000   3.82249750e+01
  2207.500   3.81889123e+01
  2208.000   3.81529145e+01
  2208.500   3.81169814e+01
  2209.000   3.80811129e+01
  2209.500   3.80453088e+01
  2210.000   3.80095690e+01
  2210.500   3.79738932e+01
  2211.000   3.79382813e+01
  2211.500   3.79027331e+01
  2212.000   3.78672486e+01
  2212.500   3.78318274e+01
  2213.000   3.77964695e+01
  2213.500   3.77611747e+01
  2214.000   3.77259429e+01
  2214.500   3.76907738e+01
  2215.000   3.76556674e+01
  2215.500   3.76206234e+01
  2216.000   3.75856417e+01
  2216.500   3.75507222e+01
  2217.000   3.75158647e+01
  2217.500   3.74810690e+01
  2218.000   3.74463350e+01
  2218.500   3.74116625e+01
  2219.000   3.73770514e+01
  2219.500   3.73425015e+01
  2220.000   3.73080126e+01
  2220.500   3.72735847e+01
  2221.000   3.72392175e+01
  2221.500   3.72049110e+01
  2222.000   3.71706649e+01
  2222.500   3.71364791e+01
  2223.000   3.71023535e+01
  2223.500   3.70682878e+01
  2224.000   3.70342821e+01
  2224.500   3.70003360e+01
  2225.000   3.69664495e+01
  2225.500   3.69326224e+01
  2226.000   3.68988546e+01
  2226.500   3.68651459e+01
  2227.000   3.68314962e+01
  2227.500   3.67979053e+01
  2228.000   3.67643731e+01
  2228.500   3.67308994e+01
  2229.000   3.66974842e+01
  2229.500   3.66641271e+01
  2230.000   3.66308282e+01
  2230.500   3.65975873e+01
  2231.000   3.65644042e+01
  2231.500   3.65312787e+01
  2232.000   3.64982108e+01
  2232.500   3.64652003e+01
  2233.000   3.64322471e+01
  2233.500   3.63993510e+01
  2234.000   3.63665118e+01
  2234.500   3.63337295e+01
  2235.000   3.63010040e+01
  2235.500   3.62683349e+01
  2236.000   3.62357223e+01
  2236.500   3.62031660e+01
  2237.000   3.61706659e+01
  2237.500   3.61382218e+01
  2238.000   3.61058336e+01
  2238.500   3.60735011e+01
  2239.000   3.60412242e+01
  2239.500   3.60090028e+01
  2240.000   3.59768368e+01
  2240.500   3.59447259e+01
  2241.000   3.59126702e+01
  2241.500   3.58806694e+01
  2242.000   3.58487234e+01
  2242.500   3.58168321e+01
  2243.000   3.57849954e+01
  2243.500   3.57532130e+01
  2244.000   3.57214850e+01
  2244.500   3.56898112e+01
  2245.000   3.56581913e+01
  2245.500   3.56266254e+01
  2246.000   3.55951133e+01
  2246.500   3.55636548e+01
  2247.000   3.55322498e+01
  2247.500   3.55008982e+01
  2248.000   3.54695999e+01
  2248.500   3.54383547e+01
  2249.000   3.54071626e+01
  2249.500   3.53760233e+01
  2250.000   3.53449368e+01
  2250.500   3.53139030e+01
  2251.000   3.52829216e+01
  2251.500   3.52519927e+01
  2252.000   3.52211160e+01
  2252.500   3.51902915e+01
  2253.000   3.51595190e+01
  2253.500   3.51287983e+01
  2254.000   3.50981295e+01
  2254.500   3.50675123e+01
  2255.000   3.50369467e+01
  2255.500   3.50064325e+01
  2256.000   3.49759695e+01
  2256.500   3.49455578e+01
  2257.000   3.49151971e+01
  2257.500   3.48848873e+01
  2258.000   3.48546284e+01
  2258.500   3.48244201e+01
  2259.000   3.47942625e+01
  2259.500   3.47641553e+01
  2260.000   3.47340984e+01
  2260.500   3.47040918e+01
  2261.000   3.46741353e+01
  2261.500   3.46442288e+01
  2262.000   3.46143722e+01
  2262.500   3.45845653e+01
  2263.000   3.45548081e+01
  2263.500   3.45251005e+01
  2264.000   3.44954422e+01
  2264.500   3.44658333e+01
  2265.000   3.44362736e+01
  2265.500   3.44067629e+01
  2266.000   3.43773012e+01
  2266.500   3.43478884e+01
  2267.000   3.43185243e+01
  2267.500   3.42892089e+01
  2268.000   3.42599420e+01
  2268.500   3.42307235e+01
  2269.000   3.42015533e+01
  2269.500   3.41724313e+01
  2270.000   3.41433573e+01
  2270.500   3.41143314e+01
  2271.000   3.40853533e+01
  2271.500   3.40564230e+01
  2272.000   3.40275403e+01
  2272.500   3.39987051e+01
  2273.000   3.39699174e+01
  2273.500   3.39411770e+01
  2274.000   3.39124838e+01
  2274.500   3.38838377e+01
  2275.000   3.38552387e+01
  2275.500   3.38266865e+01
  2276.000   3.37981811e+01
  2276.500   3.37697224e+01
  2277.000   3.37413103e+01
  2277.500   3.37129446e+01
  2278.000   3.36846254e+01
  2278.500   3.36563524e+01
  2279.000   3.36281255e+01
  2279.500   3.35999447e+01
  2280.000   3.35718099e+01
  2280.500   3.35437210e+01
  2281.000   3.35156777e+01
  2281.500   3.34876802e+01
  2282.000   3.34597282e+01
  2282.500   3.34318216e+01
  2283.000   3.34039604e+01
  2283.500   3.33761444e+01
  2284.000   3.33483736e+01
  2284.500   3.33206478e+01
  2285.000   3.32929669e+01
  2285.500   3.32653309e+01
  2286.000   3.32377397e+01
  2286.500   3.32101931e+01
  2287.000   3.31826910e+01
  2287.500   3.31552334e+01
  2288.000   3.31278201e+01
  2288.500   3.31004511e+01
  2289.000   3.30731263e+01
  2289.500   3.30458455e+01
  2290.000   3.30186087e+01
  2290.500   3.29914157e+01
  2291.000   3.29642665e+01
  2291.500   3.29371610e+01
  2292.000   3.29100991e+01
  2292.500   3.28830806e+01
  2293.000   3.28561056e+01
  2293.500   3.28291738e+01
  2294.000   3.28022852e+01
  2294.500   3.27754398e+01
  2295.000   3.27486373e+01
  2295.500   3.27218778e+01
  2296.000   3.26951610e+01
  2296.500   3.26684871e+01
  2297.000   3.26418557e+01
  2297.500   3.26152669e+01
  2298.000   3.25887206e+01
  2298.500   3.25622166e+01
  2299.000   3.25357549e+01
  2299.500   3.25093354e+01
  2300.000   3.24829579e+01
  2300.500   3.24566225e+01
  2301.000   3.24303290e+01
  2301.500   3.24040773e+01
  2302.000   3.23778673e+01
  2302.500   3.23516989e+01
  2303.000   3.23255721e+01
  2303.500   3.22994868e+01
  2304.000   3.22734428e+01
  2304.500   3.22474401e+01
  2305.000   3.22214786e+01
  2305.500   3.21955583e+01
  2306.000   3.21696789e+01
  2306.500   3.21438405e+01
  2307.000   3.21180429e+01
  2307.500   3.20922860e+01
  2308.000   3.20665699e+01
  2308.500   3.20408943e+01
  2309.000   3.20152592e+01
  2309.500   3.19896646e+01
  2310.000   3.19641102e+01
  2310.500   3.19385961e+01
  2311.000   3.19131222e+01
  2311.500   3.18876883e+01
  2312.000   3.18622945e+01
  2312.500   3.18369405e+01
  2313.000   3.18116263e+01
  2313.500   3.17863519e+01
  2314.000   3.17611171e+01
  2314.500   3.17359219e+01
  2315.000   3.17107662e+01
  2315.500   3.16856499e+01
  2316.000   3.16605729e+01
  2316.500   3.16355352e+01
  2317.000   3.16105366e+01
  2317.500   3.15855771e+01
  2318.000   3.15606565e+01
  2318.500   3.15357749e+01
  2319.000   3.15109321e+01
  2319.500   3.14861281e+01
  2320.000   3.14613627e+01
  2320.500   3.14366360e+01
  2321.000   3.14119477e+01
  2321.500   3.13872979e+01
  2322.000   3.13626864e+01
  2322.500   3.13381132e+01
  2323.000   3.13135781e+01
  2323.500   3.12890812e+01
  2324.000   3.12646223e+01
  2324.500   3.12402014e+01
  2325.000   3.12158184e+01
  2325.500   3.11914731e+01
  2326.000   3.11671656e+01
  2326.500   3.11428957e+01
  2327.000   3.11186634e+01
  2327.500   3.10944686e+01
  2328.000   3.10703112e+01
  2328.500   3.10461911e+01
  2329.000   3.10221083e+01
  2329.500   3.09980627e+01
  2330.000   3.09740542e+01
  2330.500   3.09500827e+01
  2331.000   3.09261482e+01
  2331.500   3.09022505e+01
  2332.000   3.08783897e+01
  2332.500   3.08545656e+01
  2333.000   3.08307782e+01
  2333.500   3.08070273e+01
  2334.000   3.07833130e+01
  2334.500   3.07596351e+01
  2335.000   3.07359935e+01
  2335.500   3.07123883e+01
  2336.000   3.06888193e+01
  2336.500   3.06652864e+01
  2337.000   3.06417895e+01
  2337.500   3.06183287e+01
  2338.000   3.05949038e+01
  2338.500   3.05715148e+01
  2339.000   3.05481615e+01
  2339.500   3.05248440e+01
  2340.000   3.05015621e+01
  2340.500   3.04783157e+01
  2341.000   3.04551049e+01
  2341.500   3.04319295e+01
  2342.000   3.04087894e+01
  2342.500   3.03856846e+01
  2343.000   3.03626151e+01
  2343.500   3.03395807e+01
  2344.000   3.03165813e+01
  2344.500   3.02936170e+01
  2345.000   3.02706876e+01
  2345.500   3.02477931e+01
  2346.000   3.02249333e+01
  2346.500   3.02021083e+01
  2347.000   3.01793180e+01
  2347.500   3.01565622e+01
  2348.000   3.01338410e+01
  2348.500   3.01111543e+01
  2349.000   3.00885019e+01
  2349.500   3.00658838e+01
  2350.000   3.00433000e+01
  2350.500   3.00207504e+01
  2351.000   2.99982349e+01
  2351.500   2.99757535e+01
  2352.000   2.99533060e+01
  2352.500   2.99308925e+01
  2353.000   2.99085128e+01
  2353.500   2.98861669e+01
  2354.000   2.98638547e+01
  2354.500   2.98415762e+01
  2355.000   2.98193313e+01
  2355.500   2.97971199e+01
  2356.000   2.97749420e+01
  2356.500   2.97527975e+01
  2357.000   2.97306863e+01
  2357.500   2.97086083e+01
  2358.000   2.96865636e+01
  2358.500   2.96645520e+01
  2359.000   2.96425735e+01
  2359.500   2.96206280e+01
  2360.000   2.95987154e+01
  2360.500   2.95768357e+01
  2361.000   2.95549889e+01
  2361.500   2.95331748e+01
  2362.000   2.95113934e+01
  2362.500   2.94896446e+01
  2363.000   2.94679285e+01
  2363.500   2.94462448e+01
  2364.000   2.94245935e+01
  2364.500   2.94029747e+01
  2365.000   2.93813882e+01
  2365.500   2.93598339e+01
  2366.000   2.93383118e+01
  2366.500   2.93168219e+01
  2367.000   2.92953641e+01
  2367.500   2.92739382e+01
  2368.000   2.92525444e+01
  2368.500   2.92311824e+01
  2369.000   2.92098523e+01
  2369.500   2.91885539e+01
  2370.000   2.91672873e+01
  2370.500   2.91460523e+01
  2371.000   2.91248489e+01
  2371.500   2.91036770e+01
  2372.000   2.90825367e+01
  2372.500   2.90614277e+01
  2373.000   2.90403501e+01
  2373.500   2.90193038e+01
  2374.000   2.89982888e+01
  2374.500   2.89773049e+01
  2375.000   2.89563522e+01
  2375.500   2.89354305e+01
  2376.000   2.89145399e+01
  2376.500   2.88936802e+01
  2377.000   2.88728514e+01
  2377.500   2.88520534e+01
  2378.000   2.88312862e+01
  2378.500   2.88105498e+01
  2379.000   2.87898440e+01
  2379.500   2.87691688e+01
  2380.000   2.87485242e+01
  2380.500   2.87279101e+01
  2381.000   2.87073264e+01
  2381.500   2.86867731e+01
  2382.000   2.86662501e+01
  2382.500   2.86457574e+01
  2383.000   2.86252950e+01
  2383.500   2.86048627e+01
  2384.000   2.85844605e+01
  2384.500   2.85640883e+01
  2385.000   2.85437462e+01
  2385.500   2.85234340e+01
  2386.000   2.85031517e+01
  2386.500   2.84828992e+01
  2387.000   2.84626765e+01
  2387.500   2.84424835e+01
  2388.000   2.84223202e+01
  2388.500   2.84021865e+01
  2389.000   2.83820824e+01
  2389.500   2.83620078e+01
  2390.000   2.83419627e+01
  2390.500   2.83219470e+01
  2391.000   2.83019606e+01
  2391.500   2.82820035e+01
  2392.000   2.82620757e+01
  2392.500   2.82421770e+01
  2393.000   2.82223075e+01
  2393.500   2.82024671e+01
  2394.000   2.81826557e+01
  2394.500   2.81628733e+01
  2395.000   2.81431199e+01
  2395.500   2.81233953e+01
  2396.000   2.81036996e+01
  2396.500   2.80840326e+01
  2397.000   2.80643944e+01
  2397.500   2.80447848e+01
  2398.000   2.80252039e+01
  2398.500   2.80056515e+01
  2399.000   2.79861277e+01
  2399.500   2.79666323e+01
  2400.000   2.79471654e+01
  2400.500   2.79277269e+01
  2401.000   2.79083166e+01
  2401.500   2.78889347e+01
  2402.000   2.78695809e+01
  2402.500   2.78502554e+01
  2403.000   2.78309579e+01
  2403.500   2.78116886e+01
  2404.000   2.77924472e+01
  2404.500   2.77732339e+01
  2405.000   2.77540485e+01
  2405.500   2.77348909e+01
  2406.000   2.77157612e+01
  2406.500   2.76966593e+01
  2407.000   2.76775851e+01
  2407.500   2.76585386e+01
  2408.000   2.76395197e+01
  2408.500   2.76205284e+01
  2409.000   2.76015647e+01
  2409.500   2.75826285e+01
  2410.000   2.75637197e+01
  2410.500   2.75448383e+01
  2411.000   2.75259843e+01
  2411.500   2.75071575e+01
  2412.000   2.74883581e+01
  2412.500   2.74695858e+01
  2413.000   2.74508407e+01
  2413.500   2.74321227e+01
  2414.000   2.74134318e+01
  2414.500   2.73947680e+01
  2415.000   2.73761311e+01
  2415.500   2.73575211e+01
  2416.000   2.73389381e+01
  2416.500   2.73203819e+01
  2417.000   2.73018524e+01
  2417.500   2.72833498e+01
  2418.000   2.72648738e+01
  2418.500   2.72464245e+01
  2419.000   2.72280018e+01
  2419.500   2.72096057e+01
  2420.000   2.71912361e+01
  2420.500   2.71728930e+01
  2421.000   2.71545764e+01
  2421.500   2.71362861e+01
  2422.000   2.71180222e+01
  2422.500   2.70997846e+01
  2423.000   2.70815732e+01
  2423.500   2.70633881e+01
  2424.000   2.70452291e+01
  2424.500   2.70270963e+01
  2425.000   2.70089895e+01
  2425.500   2.69909088e+01
  2426.000   2.69728541e+01
  2426.500   2.69548254e+01
  2427.000   2.69368226e+01
  2427.500   2.69188456e+01
  2428.000   2.69008945e+01
  2428.500   2.68829691e+01
  2429.000   2.68650695e+01
  2429.500   2.68471956e+01
  2430.000   2.68293474e+01
  2430.500   2.68115248e+01
  2431.000   2.67937277e+01
  2431.500   2.67759562e+01
  2432.000   2.67582102e+01
  2432.500   2.67404896e+01
  2433.000   2.67227944e+01
  2433.500   2.67051246e+01
  2434.000   2.66874802e+01
  2434.500   2.66698610e+01
  2435.000   2.66522670e+01
  2435.500   2.66346983e+01
  2436.000   2.66171547e+01
  2436.500   2.65996362e+01
  2437.000   2.65821429e+01
  2437.500   2.65646745e+01
  2438.000   2.65472312e+01
  2438.500   2.65298128e+01
  2439.000   2.65124193e+01
  2439.500   2.64950508e+01
  2440.000   2.64777070e+01
  2440.500   2.64603881e+01
  2441.000   2.64430939e+01
  2441.500   2.64258245e+01
  2442.000   2.64085797e+01
  2442.500   2.63913595e+01
  2443.000   2.63741640e+01
  2443.500   2.63569931e+01
  2444.000   2.63398466e+01
  2444.500   2.63227247e+01
  2445.000   2.63056272e+01
  2445.500   2.62885541e+01
  2446.000   2.62715054e+01
  2446.500   2.62544810e+01
  2447.000   2.62374809e+01
  2447.500   2.62205050e+01
  2448.000   2.62035534e+01
  2448.500   2.61866260e+01
  2449.000   2.61697227e+01
  2449.500   2.61528435e+01
  2450.000   2.61359884e+01
  2450.500   2.61191573e+01
  2451.000   2.61023502e+01
  2451.500   2.60855671e+01
  2452.000   2.60688079e+01
  2452.500   2.60520726e+01
  2453.000   2.60353611e+01
  2453.500   2.60186734e+01
  2454.000   2.60020095e+01
  2454.500   2.59853693e+01
  2455.000   2.59687529e+01
  2455.500   2.59521601e+01
  2456.000   2.59355909e+01
  2456.500   2.59190453e+01
  2457.000   2.59025233e+01
  2457.500   2.58860248e+01
  2458.000   2.58695498e+01
  2458.500   2.58530982e+01
  2459.000   2.58366700e+01
  2459.500   2.58202653e+01
  2460.000   2.58038838e+01
  2460.500   2.57875257e+01
  2461.000   2.57711908e+01
  2461.500   2.57548792e+01
  2462.000   2.57385908e+01
  2462.500   2.57223255e+01
  2463.000   2.57060834e+01
  2463.500   2.56898644e+01
  2464.000   2.56736684e+01
  2464.500   2.56574955e+01
  2465.000   2.56413456e+01
  2465.500   2.56252186e+01
  2466.000   2.56091146e+01
  2466.500   2.55930334e+01
  2467.000   2.55769751e+01
  2467.500   2.55609396e+01
  2468.000   2.55449270e+01
  2468.500   2.55289371e+01
  2469.000   2.55129699e+01
  2469.500   2.54970254e+01
  2470.000   2.54811035e+01
  2470.500   2.54652043e+01
  2471.000   2.54493277e+01
  2471.500   2.54334737e+01
  2472.000   2.54176421e+01
  2472.500   2.54018331e+01
  2473.000   2.53860465e+01
  2473.500   2.53702824e+01
  2474.000   2.53545406e+01
  2474.500   2.53388213e+01
  2475.000   2.53231242e+01
  2475.500   2.53074495e+01
  2476.000   2.52917970e+01
  2476.500   2.52761668e+01
  2477.000   2.52605587e+01
  2477.500   2.52449729e+01
  2478.000   2.52294092e+01
  2478.500   2.52138676e+01
  2479.000   2.51983480e+01
  2479.500   2.51828506e+01
  2480.000   2.51673751e+01
  2480.500   2.51519216e+01
  2481.000   2.51364901e+01
  2481.500   2.51210805e+01
  2482.000   2.51056929e+01
  2482.500   2.50903270e+01
  2483.000   2.50749830e+01
  2483.500   2.50596608e+01
  2484.000   2.50443604e+01
  2484.500   2.50290817e+01
  2485.000   2.50138248e+01
  2485.500   2.49985895e+01
  2486.000   2.49833758e+01
  2486.500   2.49681838e+01
  2487.000   2.49530134e+01
  2487.500   2.49378645e+01
  2488.000   2.49227372e+01
  2488.500   2.49076314e+01
  2489.000   2.48925470e+01
  2489.500   2.48774841e+01
  2490.000   2.48624426e+01
  2490.500   2.48474225e+01
  2491.000   2.48324238e+01
  2491.500   2.48174464e+01
  2492.000   2.48024903e+01
  2492.500   2.47875554e+01
  2493.000   2.47726418e+01
  2493.500   2.47577494e+01
  2494.000   2.47428782e+01
  2494.500   2.47280282e+01
  2495.000   2.47131993e+01
  2495.500   2.46983915e+01
  2496.000   2.46836047e+01
  2496.500   2.46688390e+01
  2497.000   2.46540944e+01
  2497.500   2.46393707e+01
  2498.000   2.46246680e+01
  2498.500   2.46099862e+01
  2499.000   2.45953253e+01
  2499.500   2.45806853e+01
  2500.000   2.45660661e+01
  2500.500   2.45514678e+01
  2501.000   2.45368903e+01
  2501.500   2.45223335e+01
  2502.000   2.45077975e+01
  2502.500   2.44932822e+01
  2503.000   2.44787876e+01
  2503.500   2.44643137e+01
  2504.000   2.44498604e+01
  2504.500   2.44354277e+01
  2505.000   2.44210156e+01
  2505.500   2.44066241e+01
  2506.000   2.43922530e+01
  2506.500   2.43779025e+01
  2507.000   2.43635725e+01
  2507.500   2.43492629e+01
  2508.000   2.43349738e+01
  2508.500   2.43207051e+01
  2509.000   2.43064567e+01
  2509.500   2.42922287e+01
  2510.000   2.42780210e+01
  2510.500   2.42638336e+01
  2511.000   2.42496665e+01
  2511.500   2.42355197e+01
  2512.000   2.42213930e+01
  2512.500   2.42072866e+01
  2513.000   2.41932004e+01
  2513.500   2.41791343e+01
  2514.000   2.41650883e+01
  2514.500   2.41510624e+01
  2515.000   2.41370566e+01
  2515.500   2.41230709e+01
  2516.000   2.41091052e+01
  2516.500   2.40951594e+01
  2517.000   2.40812337e+01
  2517.500   2.40673279e+01
  2518.000   2.40534421e+01
  2518.500   2.40395762e+01
  2519.000   2.40257301e+01
  2519.500   2.40119039e+01
  2520.000   2.39980976e+01
  2520.500   2.39843110e+01
  2521.000   2.39705443e+01
  2521.500   2.39567973e+01
  2522.000   2.39430700e+01
  2522.500   2.39293625e+01
  2523.000   2.39156747e+01
  2523.500   2.39020066e+01
  2524.000   2.38883581e+01
  2524.500   2.38747292e+01
  2525.000   2.38611199e+01
  2525.500   2.38475302e+01
  2526.000   2.38339601e+01
  2526.500   2.38204095e+01
  2527.000   2.38068785e+01
  2527.500   2.37933669e+01
  2528.000   2.37798748e+01
  2528.500   2.37664021e+01
  2529.000   2.37529489e+01
  2529.500   2.37395150e+01
  2530.000   2.37261006e+01
  2530.500   2.37127055e+01
  2531.000   2.36993298e+01
  2531.500   2.36859733e+01
  2532.000   2.36726362e+01
  2532.500   2.36593184e+01
  2533.000   2.36460197e+01
  2533.500   2.36327404e+01
  2534.000   2.36194802e+01
  2534.500   2.36062392e+01
  2535.000   2.35930174e+01
  2535.500   2.35798148e+01
  2536.000   2.35666312e+01
  2536.500   2.35534668e+01
  2537.000   2.35403215e+01
  2537.500   2.35271952e+01
  2538.000   2.35140880e+01
  2538.500   2.35009998e+01
  2539.000   2.34879306e+01
  2539.500   2.34748803e+01
  2540.000   2.34618491e+01
  2540.500   2.34488368e+01
  2541.000   2.34358434e+01
  2541.500   2.34228689e+01
  2542.000   2.34099133e+01
  2542.500   2.33969765e+01
  2543.000   2.33840586e+01
  2543.500   2.33711596e+01
  2544.000   2.33582793e+01
  2544.500   2.33454178e+01
  2545.000   2.33325751e+01
  2545.500   2.33197511e+01
  2546.000   2.33069459e+01
  2546.500   2.32941593e+01
  2547.000   2.32813915e+01
  2547.500   2.32686423e+01
  2548.000   2.32559118e+01
  2548.500   2.32431999e+01
  2549.000   2.32305066e+01
  2549.500   2.32178320e+01
  2550.000   2.32051759e+01
  2550.500   2.31925383e+01
  2551.000   2.31799193e+01
  2551.500   2.31673188e+01
  2552.000   2.31547369e+01
  2552.500   2.31421734e+01
  2553.000   2.31296283e+01
  2553.500   2.31171018e+01
  2554.000   2.31045936e+01
  2554.500   2.30921039e+01
  2555.000   2.30796326e+01
  2555.500   2.30671797e+01
  2556.000   2.30547451e+01
  2556.500   2.30423288e+01
  2557.000   2.30299309e+01
  2557.500   2.30175513e+01
  2558.000   2.30051900e+01
  2558.500   2.29928470e+01
  2559.000   2.29805222e+01
  2559.500   2.29682157e+01
  2560.000   2.29559274e+01
  2560.500   2.29436573e+01
  2561.000   2.29314054e+01
  2561.500   2.29191717e+01
  2562.000   2.29069562e+01
  2562.500   2.28947587e+01
  2563.000   2.28825794e+01
  2563.500   2.28704183e+01
  2564.000   2.28582752e+01
  2564.500   2.28461502e+01
  2565.000   2.28340432e+01
  2565.500   2.28219543e+01
  2566.000   2.28098835e+01
  2566.500   2.27978306e+01
  2567.000   2.27857958e+01
  2567.500   2.27737789e+01
  2568.000   2.27617800e+01
  2568.500   2.27497991e+01
  2569.000   2.27378361e+01
  2569.500   2.27258910e+01
  2570.000   2.27139638e+01
  2570.500   2.27020546e+01
  2571.000   2.26901632e+01
  2571.500   2.26782896e+01
  2572.000   2.26664339e+01
  2572.500   2.26545961e+01
  2573.000   2.26427760e+01
  2573.500   2.26309738e+01
  2574.000   2.26191894e+01
  2574.500   2.26074227e+01
  2575.000   2.25956738e+01
  2575.500   2.25839427e+01
  2576.000   2.25722292e+01
  2576.500   2.25605335e+01
  2577.000   2.25488555e+01
  2577.500   2.25371952e+01
  2578.000   2.25255526e+01
  2578.500   2.25139277e+01
  2579.000   2.25023203e+01
  2579.500   2.24907307e+01
  2580.000   2.24791586e+01
  2580.500   2.24676042e+01
  2581.000   2.24560674e+01
  2581.500   2.24445481e+01
  2582.000   2.24330464e+01
  2582.500   2.24215623e+01
  2583.000   2.24100957e+01
  2583.500   2.23986467e+01
  2584.000   2.23872151e+01
  2584.500   2.23758011e+01
  2585.000   2.23644046e+01
  2585.500   2.23530255e+01
  2586.000   2.23416640e+01
  2586.500   2.23303198e+01
  2587.000   2.23189932e+01
  2587.500   2.23076839e+01
  2588.000   2.22963921e+01
  2588.500   2.22851177e+01
  2589.000   2.22738607e+01
  2589.500   2.22626211e+01
  2590.000   2.22513988e+01
  2590.500   2.22401939e+01
  2591.000   2.22290064e+01
  2591.500   2.22178362e+01
  2592.000   2.22066833e+01
  2592.500   2.21955477e+01
  2593.000   2.21844295e+01
  2593.500   2.21733285e+01
  2594.000   2.21622448e+01
  2594.500   2.21511784e+01
  2595.000   2.21401293e+01
  2595.500   2.21290974e+01
  2596.000   2.21180828e+01
  2596.500   2.21070853e+01
  2597.000   2.20961051e+01
  2597.500   2.20851421e+01
  2598.000   2.20741963e+01
  2598.500   2.20632677e+01
  2599.000   2.20523563e+01
  2599.500   2.20414620e+01
  2600.000   2.20305849e+01
  2600.500   2.20197250e+01
  2601.000   2.20088821e+01
  2601.500   2.19980564e+01
  2602.000   2.19872479e+01
  2602.500   2.19764564e+01
  2603.000   2.19656820e+01
  2603.500   2.19549247e+01
  2604.000   2.19441846e+01
  2604.500   2.19334614e+01
  2605.000   2.19227554e+01
  2605.500   2.19120664e+01
  2606.000   2.19013944e+01
  2606.500   2.18907395e+01
  2607.000   2.18801016e+01
  2607.500   2.18694807e+01
  2608.000   2.18588768e+01
  2608.500   2.18482899e+01
  2609.000   2.18377201e+01
  2609.500   2.18271672e+01
  2610.000   2.18166312e+01
  2610.500   2.18061123e+01
  2611.000   2.17956103e+01
  2611.500   2.17851253e+01
  2612.000   2.17746572e+01
  2612.500   2.17642060e+01
  2613.000   2.17537718e+01
  2613.500   2.17433545e+01
  2614.000   2.17329541e+01
  2614.500   2.17225706e+01
  2615.000   2.17122040e+01
  2615.500   2.17018543e+01
  2616.000   2.16915215e+01
  2616.500   2.16812056e+01
  2617.000   2.16709065e+01
  2617.500   2.16606243e+01
  2618.000   2.16503590e+01
  2618.500   2.16401105e+01
  2619.000   2.16298788e+01
  2619.500   2.16196640e+01
  2620.000   2.16094660e+01
  2620.500   2.15992849e+01
  2621.000   2.15891206e+01
  2621.500   2.15789730e+01
  2622.000   2.15688423e+01
  2622.500   2.15587284e+01
  2623.000   2.15486313e+01
  2623.500   2.15385509e+01
  2624.000   2.15284874e+01
  2624.500   2.15184406e+01
  2625.000   2.15084106e+01
  2625.500   2.14983974e+01
  2626.000   2.14884009e+01
  2626.500   2.14784212e+01
  2627.000   2.14684582e+01
  2627.500   2.14585120e+01
  2628.000   2.14485825e+01
  2628.500   2.14386697e+01
  2629.000   2.14287737e+01
  2629.500   2.14188944e+01
  2630.000   2.14090319e+01
  2630.500   2.13991860e+01
  2631.000   2.13893569e+01
  2631.500   2.13795445e+01
  2632.000   2.13697487e+01
  2632.500   2.13599697e+01
  2633.000   2.13502074e+01
  2633.500   2.13404618e+01
  2634.000   2.13307328e+01
  2634.500   2.13210206e+01
  2635.000   2.13113250e+01
  2635.500   2.13016461e+01
  2636.000   2.12919839e+01
  2636.500   2.12823383e+01
  2637.000   2.12727094e+01
  2637.500   2.12630972e+01
  2638.000   2.12535017e+01
  2638.500   2.12439228e+01
  2639.000   2.12343605e+01
  2639.500   2.12248149e+01
  2640.000   2.12152860e+01
  2640.500   2.12057737e+01
  2641.000   2.11962781e+01
  2641.500   2.11867991e+01
  2642.000   2.11773367e+01
  2642.500   2.11678910e+01
  2643.000   2.11584620e+01
  2643.500   2.11490495e+01
  2644.000   2.11396537e+01
  2644.500   2.11302746e+01
  2645.000   2.11209120e+01
  2645.500   2.11115661e+01
  2646.000   2.11022368e+01
  2646.500   2.10929242e+01
  2647.000   2.10836281e+01
  2647.500   2.10743487e+01
  2648.000   2.10650860e+01
  2648.500   2.10558398e+01
  2649.000   2.10466103e+01
  2649.500   2.10373973e+01
  2650.000   2.10282010e+01
  2650.500   2.10190214e+01
  2651.000   2.10098583e+01
  2651.500   2.10007119e+01
  2652.000   2.09915821e+01
  2652.500   2.09824689e+01
  2653.000   2.09733723e+01
  2653.500   2.09642923e+01
  2654.000   2.09552290e+01
  2654.500   2.09461823e+01
  2655.000   2.09371522e+01
  2655.500   2.09281387e+01
  2656.000   2.09191419e+01
  2656.500   2.09101616e+01
  2657.000   2.09011980e+01
  2657.500   2.08922510e+01
  2658.000   2.08833207e+01
  2658.500   2.08744069e+01
  2659.000   2.08655098e+01
  2659.500   2.08566294e+01
  2660.000   2.08477655e+01
  2660.500   2.08389183e+01
  2661.000   2.08300878e+01
  2661.500   2.08212738e+01
  2662.000   2.08124765e+01
  2662.500   2.08036959e+01
  2663.000   2.07949319e+01
  2663.500   2.07861845e+01
  2664.000   2.07774538e+01
  2664.500   2.07687397e+01
  2665.000   2.07600423e+01
  2665.500   2.07513615e+01
  2666.000   2.07426974e+01
  2666.500   2.07340500e+01
  2667.000   2.07254192e+01
  2667.500   2.07168051e+01
  2668.000   2.07082077e+01
  2668.500   2.06996269e+01
  2669.000   2.06910629e+01
  2669.500   2.06825155e+01
  2670.000   2.06739848e+01
  2670.500   2.06654707e+01
  2671.000   2.06569734e+01
  2671.500   2.06484928e+01
  2672.000   2.06400289e+01
  2672.500   2.06315817e+01
  2673.000   2.06231512e+01
  2673.500   2.06147374e+01
  2674.000   2.06063403e+01
  2674.500   2.05979600e+01
  2675.000   2.05895964e+01
  2675.500   2.05812495e+01
  2676.000   2.05729194e+01
  2676.500   2.05646060e+01
  2677.000   2.05563094e+01
  2677.500   2.05480295e+01
  2678.000   2.05397664e+01
  2678.500   2.05315201e+01
  2679.000   2.05232905e+01
  2679.500   2.05150777e+01
  2680.000   2.05068817e+01
  2680.500   2.04987025e+01
  2681.000   2.04905402e+01
  2681.500   2.04823946e+01
  2682.000   2.04742658e+01
  2682.500   2.04661538e+01
  2683.000   2.04580587e+01
  2683.500   2.04499804e+01
  2684.000   2.04419190e+01
  2684.500   2.04338744e+01
  2685.000   2.04258467e+01
  2685.500   2.04178358e+01
  2686.000   2.04098418e+01
  2686.500   2.04018647e+01
  2687.000   2.03939045e+01
  2687.500   2.03859611e+01
  2688.000   2.03780347e+01
  2688.500   2.03701252e+01
  2689.000   2.03622326e+01
  2689.500   2.03543570e+01
  2690.000   2.03464983e+01
  2690.500   2.03386565e+01
  2691.000   2.03308317e+01
  2691.500   2.03230239e+01
  2692.000   2.03152330e+01
  2692.500   2.03074591e+01
  2693.000   2.02997023e+01
  2693.500   2.02919624e+01
  2694.000   2.02842395e+01
  2694.500   2.02765337e+01
  2695.000   2.02688449e+01
  2695.500   2.02611732e+01
  2696.000   2.02535185e+01
  2696.500   2.02458808e+01
  2697.000   2.02382603e+01
  2697.500   2.02306568e+01
  2698.000   2.02230705e+01
  2698.500   2.02155012e+01
  2699.000   2.02079491e+01
  2699.500   2.02004141e+01
  2700.000   2.01928963e+01
  2700.500   2.01853956e+01
  2701.000   2.01779121e+01
  2701.500   2.01704458e+01
  2702.000   2.01629966e+01
  2702.500   2.01555647e+01
  2703.000   2.01481500e+01
  2703.500   2.01407525e+01
  2704.000   2.01333723e+01
  2704.500   2.01260093e+01
  2705.000   2.01186636e+01
  2705.500   2.01113352e+01
  2706.000   2.01040240e+01
  2706.500   2.00967302e+01
  2707.000   2.00894537e+01
  2707.500   2.00821946e+01
  2708.000   2.00749528e+01
  2708.500   2.00677283e+01
  2709.000   2.00605213e+01
  2709.500   2.00533316e+01
  2710.000   2.00461594e+01
  2710.500   2.00390045e+01
  2711.000   2.00318672e+01
  2711.500   2.00247472e+01
  2712.000   2.00176448e+01
  2712.500   2.00105598e+01
  2713.000   2.00034923e+01
  2713.500   1.99964424e+01
  2714.000   1.99894099e+01
  2714.500   1.99823951e+01
  2715.000   1.99753978e+01
  2715.500   1.99684180e+01
  2716.000   1.99614559e+01
  2716.500   1.99545114e+01
  2717.000   1.99475845e+01
  2717.500   1.99406753e+01
  2718.000   1.99337837e+01
  2718.500   1.99269098e+01
  2719.000   1.99200536e+01
  2719.500   1.99132152e+01
  2720.000   1.99063944e+01
  2720.500   1.98995915e+01
  2721.000   1.98928063e+01
  2721.500   1.98860389e+01
  2722.000   1.98792893e+01
  2722.500   1.98725575e+01
  2723.000   1.98658436e+01
  2723.500   1.98591476e+01
  2724.000   1.98524694e+01
  2724.500   1.98458091e+01
  2725.000   1.98391668e+01
  2725.500   1.98325424e+01
  2726.000   1.98259360e+01
  2726.500   1.98193476e+01
  2727.000   1.98127771e+01
  2727.500   1.98062248e+01
  2728.000   1.97996904e+01
  2728.500   1.97931741e+01
  2729.000   1.97866759e+01
  2729.500   1.97801959e+01
  2730.000   1.97737339e+01
  2730.500   1.97672901e+01
  2731.000   1.97608645e+01
  2731.500   1.97544571e+01
  2732.000   1.97480679e+01
  2732.500   1.97416970e+01
  2733.000   1.97353443e+01
  2733.500   1.97290099e+01
  2734.000   1.97226938e+01
  2734.500   1.97163961e+01
  2735.000   1.97101167e+01
  2735.500   1.97038557e+01
  2736.000   1.96976131e+01
  2736.500   1.96913889e+01
  2737.000   1.96851832e+01
  2737.500   1.96789960e+01
  2738.000   1.96728273e+01
  2738.500   1.96666771e+01
  2739.000   1.96605454e+01
  2739.500   1.96544324e+01
  2740.000   1.96483379e+01
  2740.500   1.96422621e+01
  2741.000   1.96362049e+01
  2741.500   1.96301664e+01
  2742.000   1.96241467e+01
  2742.500   1.96181456e+01
  2743.000   1.96121634e+01
  2743.500   1.96061999e+01
  2744.000   1.96002552e+01
  2744.500   1.95943294e+01
  2745.000   1.95884224e+01
  2745.500   1.95825344e+01
  2746.000   1.95766653e+01
  2746.500   1.95708151e+01
  2747.000   1.95649839e+01
  2747.500   1.95591717e+01
  2748.000   1.95533786e+01
  2748.500   1.95476046e+01
  2749.000   1.95418496e+01
  2749.500   1.95361138e+01
  2750.000   1.95303971e+01
  2750.500   1.95246997e+01
  2751.000   1.95190214e+01
  2751.500   1.95133624e+01
  2752.000   1.95077227e+01
  2752.500   1.95021023e+01
  2753.000   1.94965012e+01
  2753.500   1.94909196e+01
  2754.000   1.94853573e+01
  2754.500   1.94798145e+01
  2755.000   1.94742911e+01
  2755.500   1.94687873e+01
  2756.000   1.94633030e+01
  2756.500   1.94578382e+01
  2757.000   1.94523931e+01
  2757.500   1.94469676e+01
  2758.000   1.94415618e+01
  2758.500   1.94361756e+01
  2759.000   1.94308093e+01
  2759.500   1.94254626e+01
  2760.000   1.94201358e+01
  2760.500   1.94148289e+01
  2761.000   1.94095418e+01
  2761.500   1.94042747e+01
  2762.000   1.93990275e+01
  2762.500   1.93938002e+01
  2763.000   1.93885930e+01
  2763.500   1.93834059e+01
  2764.000   1.93782389e+01
  2764.500   1.93730920e+01
  2765.000   1.93679652e+01
  2765.500   1.93628587e+01
  2766.000   1.93577724e+01
  2766.500   1.93527064e+01
  2767.000   1.93476608e+01
  2767.500   1.93426354e+01
  2768.000   1.93376305e+01
  2768.500   1.93326461e+01
  2769.000   1.93276821e+01
  2769.500   1.93227386e+01
  2770.000   1.93178157e+01
  2770.500   1.93129134e+01
  2771.000   1.93080318e+01
  2771.500   1.93031708e+01
  2772.000   1.92983305e+01
  2772.500   1.92935110e+01
  2773.000   1.92887124e+01
  2773.500   1.92839345e+01
  2774.000   1.92791776e+01
  2774.500   1.92744416e+01
  2775.000   1.92697266e+01
  2775.500   1.92650326e+01
  2776.000   1.92603597e+01
  2776.500   1.92557078e+01
  2777.000   1.92510772e+01
  2777.500   1.92464677e+01
  2778.000   1.92418795e+01
  2778.500   1.92373125e+01
  2779.000   1.92327669e+01
  2779.500   1.92282427e+01
  2780.000   1.92237399e+01
  2780.500   1.92192586e+01
  2781.000   1.92147988e+01
  2781.500   1.92103606e+01
  2782.000   1.92059440e+01
  2782.500   1.92015490e+01
  2783.000   1.91971758e+01
  2783.500   1.91928243e+01
  2784.000   1.91884946e+01
  2784.500   1.91841868e+01
  2785.000   1.91799009e+01
  2785.500   1.91756370e+01
  2786.000   1.91713951e+01
  2786.500   1.91671752e+01
  2787.000   1.91629774e+01
  2787.500   1.91588018e+01
  2788.000   1.91546485e+01
  2788.500   1.91505173e+01
  2789.000   1.91464085e+01
  2789.500   1.91423221e+01
  2790.000   1.91382581e+01
  2790.500   1.91342166e+01
  2791.000   1.91301976e+01
  2791.500   1.91262012e+01
  2792.000   1.91222274e+01
  2792.500   1.91182763e+01
  2793.000   1.91143480e+01
  2793.500   1.91104424e+01
  2794.000   1.91065598e+01
  2794.500   1.91027000e+01
  2795.000   1.90988633e+01
  2795.500   1.90950495e+01
  2796.000   1.90912589e+01
  2796.500   1.90874914e+01
  2797.000   1.90837471e+01
  2797.500   1.90800261e+01
  2798.000   1.90763284e+01
  2798.500   1.90726541e+01
  2799.000   1.90690032e+01
  2799.500   1.90653759e+01
  2800.000   1.90617721e+01
  2800.500   1.90581919e+01
  2801.000   1.90546354e+01
  2801.500   1.90511027e+01
  2802.000   1.90475938e+01
  2802.500   1.90441088e+01
  2803.000   1.90406477e+01
  2803.500   1.90372106e+01
  2804.000   1.90337976e+01
  2804.500   1.90304087e+01
  2805.000   1.90270440e+01
  2805.500   1.90237035e+01
  2806.000   1.90203875e+01
  2806.500   1.90170957e+01
  2807.000   1.90138285e+01
  2807.500   1.90105858e+01
  2808.000   1.90073677e+01
  2808.500   1.90041743e+01
  2809.000   1.90010055e+01
  2809.500   1.89978616e+01
  2810.000   1.89947426e+01
  2810.500   1.89916485e+01
  2811.000   1.89885795e+01
  2811.500   1.89855355e+01
  2812.000   1.89825166e+01
  2812.500   1.89795230e+01
  2813.000   1.89765547e+01
  2813.500   1.89736118e+01
  2814.000   1.89706944e+01
  2814.500   1.89678024e+01
  2815.000   1.89649361e+01
  2815.500   1.89620954e+01
  2816.000   1.89592804e+01
  2816.500   1.89564913e+01
  2817.000   1.89537281e+01
  2817.500   1.89509909e+01
  2818.000   1.89482797e+01
  2818.500   1.89455947e+01
  2819.000   1.89429358e+01
  2819.500   1.89403033e+01
  2820.000   1.89376971e+01
  2820.500   1.89351174e+01
  2821.000   1.89325642e+01
  2821.500   1.89300376e+01
  2822.000   1.89275377e+01
  2822.500   1.89250646e+01
  2823.000   1.89226184e+01
  2823.500   1.89201991e+01
  2824.000   1.89178068e+01
  2824.500   1.89154416e+01
  2825.000   1.89131037e+01
  2825.500   1.89107930e+01
  2826.000   1.89085096e+01
  2826.500   1.89062538e+01
  2827.000   1.89040255e+01
  2827.500   1.89018248e+01
  2828.000   1.88996518e+01
  2828.500   1.88975066e+01
  2829.000   1.88953894e+01
  2829.500   1.88933001e+01
  2830.000   1.88912389e+01
  2830.500   1.88892059e+01
  2831.000   1.88872012e+01
  2831.500   1.88852248e+01
  2832.000   1.88832768e+01
  2832.500   1.88813574e+01
  2833.000   1.88794667e+01
  2833.500   1.88776047e+01
  2834.000   1.88757715e+01
  2834.500   1.88739672e+01
  2835.000   1.88721920e+01
  2835.500   1.88704459e+01
  2836.000   1.88687290e+01
  2836.500   1.88670414e+01
  2837.000   1.88653833e+01
  2837.500   1.88637547e+01
  2838.000   1.88621557e+01
  2838.500   1.88605864e+01
  2839.000   1.88590470e+01
  2839.500   1.88575375e+01
  2840.000   1.88560581e+01
  2840.500   1.88546087e+01
  2841.000   1.88531897e+01
  2841.500   1.88518010e+01
  2842.000   1.88504427e+01
  2842.500   1.88491151e+01
  2843.000   1.88478181e+01
  2843.500   1.88465518e+01
  2844.000   1.88453165e+01
  2844.500   1.88441122e+01
  2845.000   1.88429391e+01
  2845.500   1.88417971e+01
  2846.000   1.88406865e+01
  2846.500   1.88396074e+01
  2847.000   1.88385598e+01
  2847.500   1.88375439e+01
  2848.000   1.88365599e+01
  2848.500   1.88356077e+01
  2849.000   1.88346876e+01
  2849.500   1.88337997e+01
  2850.000   1.88329440e+01
  2850.500   1.88321207e+01
  2851.000   1.88313300e+01
  2851.500   1.88305719e+01
  2852.000   1.88298466e+01
  2852.500   1.88291541e+01
  2853.000   1.88284947e+01
  2853.500   1.88278684e+01
  2854.000   1.88272754e+01
  2854.500   1.88267157e+01
  2855.000   1.88261896e+01
  2855.500   1.88256971e+01
  2856.000   1.88252385e+01
  2856.500   1.88248137e+01
  2857.000   1.88244229e+01
  2857.500   1.88240664e+01
  2858.000   1.88237441e+01
  2858.500   1.88234563e+01
  2859.000   1.88232031e+01
  2859.500   1.88229845e+01
  2860.000   1.88228009e+01
  2860.500   1.88226522e+01
  2861.000   1.88225386e+01
  2861.500   1.88224603e+01
  2862.000   1.88224174e+01
  2862.500   1.88224101e+01
  2863.000   1.88224384e+01
  2863.500   1.88225026e+01
  2864.000   1.88226028e+01
  2864.500   1.88227391e+01
  2865.000   1.88229116e+01
  2865.500   1.88231206e+01
  2866.000   1.88233662e+01
  2866.500   1.88236485e+01
  2867.000   1.88239676e+01
  2867.500   1.88243238e+01
  2868.000   1.88247171e+01
  2868.500   1.88251478e+01
  2869.000   1.88256160e+01
  2869.500   1.88261218e+01
  2870.000   1.88266654e+01
  2870.500   1.88272470e+01
  2871.000   1.88278667e+01
  2871.500   1.88285247e+01
  2872.000   1.88292211e+01
  2872.500   1.88299561e+01
  2873.000   1.88307299e+01
  2873.500   1.88315426e+01
  2874.000   1.88323945e+01
  2874.500   1.88332856e+01
  2875.000   1.88342161e+01
  2875.500   1.88351863e+01
  2876.000   1.88361962e+01
  2876.500   1.88372461e+01
  2877.000   1.88383361e+01
  2877.500   1.88394664e+01
  2878.000   1.88406372e+01
  2878.500   1.88418487e+01
  2879.000   1.88431009e+01
  2879.500   1.88443943e+01
  2880.000   1.88457288e+01
  2880.500   1.88471047e+01
  2881.000   1.88485221e+01
  2881.500   1.88499813e+01
  2882.000   1.88514825e+01
  2882.500   1.88530257e+01
  2883.000   1.88546113e+01
  2883.500   1.88562394e+01
  2884.000   1.88579102e+01
  2884.500   1.88596239e+01
  2885.000   1.88613807e+01
  2885.500   1.88631807e+01
  2886.000   1.88650243e+01
  2886.500   1.88669115e+01
  2887.000   1.88688426e+01
  2887.500   1.88708178e+01
  2888.000   1.88728373e+01
  2888.500   1.88749013e+01
  2889.000   1.88770099e+01
  2889.500   1.88791635e+01
  2890.000   1.88813622e+01
  2890.500   1.88836063e+01
  2891.000   1.88858959e+01
  2891.500   1.88882312e+01
  2892.000   1.88906125e+01
  2892.500   1.88930400e+01
  2893.000   1.88955140e+01
  2893.500   1.88980345e+01
  2894.000   1.89006019e+01
  2894.500   1.89032164e+01
  2895.000   1.89058782e+01
  2895.500   1.89085875e+01
  2896.000   1.89113446e+01
  2896.500   1.89141497e+01
  2897.000   1.89170030e+01
  2897.500   1.89199048e+01
  2898.000   1.89228553e+01
  2898.500   1.89258547e+01
  2899.000   1.89289033e+01
  2899.500   1.89320013e+01
  2900.000   1.89351489e+01
  2900.500   1.89383465e+01
  2901.000   1.89415942e+01
  2901.500   1.89448923e+01
  2902.000   1.89482411e+01
  2902.500   1.89516407e+01
  2903.000   1.89550915e+01
  2903.500   1.89585938e+01
  2904.000   1.89621477e+01
  2904.500   1.89657535e+01
  2905.000   1.89694116e+01
  2905.500   1.89731221e+01
  2906.000   1.89768853e+01
  2906.500   1.89807015e+01
  2907.000   1.89845710e+01
  2907.500   1.89884940e+01
  2908.000   1.89924709e+01
  2908.500   1.89965018e+01
  2909.000   1.90005871e+01
  2909.500   1.90047270e+01
  2910.000   1.90089219e+01
  2910.500   1.90131720e+01
  2911.000   1.90174776e+01
  2911.500   1.90218390e+01
  2912.000   1.90262564e+01
  2912.500   1.90307303e+01
  2913.000   1.90352608e+01
  2913.500   1.90398484e+01
  2914.000   1.90444931e+01
  2914.500   1.90491955e+01
  2915.000   1.90539558e+01
  2915.500   1.90587742e+01
  2916.000   1.90636512e+01
  2916.500   1.90685870e+01
  2917.000   1.90735819e+01
  2917.500   1.90786362e+01
  2918.000   1.90837504e+01
  2918.500   1.90889246e+01
  2919.000   1.90941593e+01
  2919.500   1.90994547e+01
  2920.000   1.91048111e+01
  2920.500   1.91102290e+01
  2921.000   1.91157087e+01
  2921.500   1.91212504e+01
  2922.000   1.91268546e+01
  2922.500   1.91325216e+01
  2923.000   1.91382516e+01
  2923.500   1.91440452e+01
  2924.000   1.91499025e+01
  2924.500   1.91558241e+01
  2925.000   1.91618101e+01
  2925.500   1.91678611e+01
  2926.000   1.91739774e+01
  2926.500   1.91801592e+01
  2927.000   1.91864071e+01
  2927.500   1.91927214e+01
  2928.000   1.91991024e+01
  2928.500   1.92055505e+01
  2929.000   1.92120661e+01
  2929.500   1.92186496e+01
  2930.000   1.92253014e+01
  2930.500   1.92320219e+01
  2931.000   1.92388115e+01
  2931.500   1.92456705e+01
  2932.000   1.92525994e+01
  2932.500   1.92595985e+01
  2933.000   1.92666684e+01
  2933.500   1.92738093e+01
  2934.000   1.92810217e+01
  2934.500   1.92883061e+01
  2935.000   1.92956628e+01
  2935.500   1.93030923e+01
  2936.000   1.93105950e+01
  2936.500   1.93181713e+01
  2937.000   1.93258217e+01
  2937.500   1.93335466e+01
  2938.000   1.93413464e+01
  2938.500   1.93492217e+01
  2939.000   1.93571728e+01
  2939.500   1.93652001e+01
  2940.000   1.93733043e+01
  2940.500   1.93814857e+01
  2941.000   1.93897447e+01
  2941.500   1.93980820e+01
  2942.000   1.94064978e+01
  2942.500   1.94149928e+01
  2943.000   1.94235673e+01
  2943.500   1.94322220e+01
  2944.000   1.94409572e+01
  2944.500   1.94497735e+01
  2945.000   1.94586713e+01
  2945.500   1.94676512e+01
  2946.000   1.94767137e+01
  2946.500   1.94858593e+01
  2947.000   1.94950884e+01
  2947.500   1.95044017e+01
  2948.000   1.95137997e+01
  2948.500   1.95232828e+01
  2949.000   1.95328516e+01
  2949.500   1.95425067e+01
  2950.000   1.95522486e+01
  2950.500   1.95620778e+01
  2951.000   1.95719949e+01
  2951.500   1.95820005e+01
  2952.000   1.95920951e+01
  2952.500   1.96022793e+01
  2953.000   1.96125537e+01
  2953.500   1.96229188e+01
  2954.000   1.96333752e+01
  2954.500   1.96439235e+01
  2955.000   1.96545644e+01
  2955.500   1.96652983e+01
  2956.000   1.96761260e+01
  2956.500   1.96870479e+01
  2957.000   1.96980649e+01
  2957.500   1.97091773e+01
  2958.000   1.97203860e+01
  2958.500   1.97316915e+01
  2959.000   1.97430944e+01
  2959.500   1.97545955e+01
  2960.000   1.97661953e+01
  2960.500   1.97778945e+01
  2961.000   1.97896937e+01
  2961.500   1.98015937e+01
  2962.000   1.98135952e+01
  2962.500   1.98256987e+01
  2963.000   1.98379050e+01
  2963.500   1.98502147e+01
  2964.000   1.98626287e+01
  2964.500   1.98751475e+01
  2965.000   1.98877719e+01
  2965.500   1.99005026e+01
  2966.000   1.99133403e+01
  2966.500   1.99262858e+01
  2967.000   1.99393399e+01
  2967.500   1.99525032e+01
  2968.000   1.99657764e+01
  2968.500   1.99791605e+01
  2969.000   1.99926561e+01
  2969.500   2.00062640e+01
  2970.000   2.00199850e+01
  2970.500   2.00338199e+01
  2971.000   2.00477695e+01
  2971.500   2.00618346e+01
  2972.000   2.00760159e+01
  2972.500   2.00903144e+01
  2973.000   2.01047309e+01
  2973.500   2.01192661e+01
  2974.000   2.01339210e+01
  2974.500   2.01486964e+01
  2975.000   2.01635931e+01
  2975.500   2.01786120e+01
  2976.000   2.01937541e+01
  2976.500   2.02090201e+01
  2977.000   2.02244110e+01
  2977.500   2.02399277e+01
  2978.000   2.02555711e+01
  2978.500   2.02713422e+01
  2979.000   2.02872418e+01
  2979.500   2.03032709e+01
  2980.000   2.03194304e+01
  2980.500   2.03357214e+01
  2981.000   2.03521447e+01
  2981.500   2.03687014e+01
  2982.000   2.03853925e+01
  2982.500   2.04022189e+01
  2983.000   2.04191816e+01
  2983.500   2.04362818e+01
  2984.000   2.04535204e+01
  2984.500   2.04708984e+01
  2985.000   2.04884169e+01
  2985.500   2.05060770e+01
  2986.000   2.05238798e+01
  2986.500   2.05418262e+01
  2987.000   2.05599175e+01
  2987.500   2.05781548e+01
  2988.000   2.05965391e+01
  2988.500   2.06150715e+01
  2989.000   2.06337533e+01
  2989.500   2.06525856e+01
  2990.000   2.06715695e+01
  2990.500   2.06907063e+01
  2991.000   2.07099970e+01
  2991.500   2.07294430e+01
  2992.000   2.07490455e+01
  2992.500   2.07688056e+01
  2993.000   2.07887246e+01
  2993.500   2.08088038e+01
  2994.000   2.08290444e+01
  2994.500   2.08494477e+01
  2995.000   2.08700151e+01
  2995.500   2.08907478e+01
  2996.000   2.09116472e+01
  2996.500   2.09327145e+01
  2997.000   2.09539512e+01
  2997.500   2.09753587e+01
  2998.000   2.09969382e+01
  2998.500   2.10186913e+01
  2999.000   2.10406193e+01
  2999.500   2.10627236e+01
