# # Created with Intravib version 0.0.9g 
# # Total reorganization energy:  2147.630194 cm^-1
     0.000   0.00000000e+00
     0.500   4.47419858e-03
     1.000   8.95935535e-03
     1.500   1.34555085e-02
     2.000   1.79626966e-02
     2.500   2.24809582e-02
     3.000   2.70103322e-02
     3.500   3.15508577e-02
     4.000   3.61025740e-02
     4.500   4.06655208e-02
     5.000   4.52397377e-02
     5.500   4.98252647e-02
     6.000   5.44221422e-02
     6.500   5.90304104e-02
     7.000   6.36501103e-02
     7.500   6.82812826e-02
     8.000   7.29239686e-02
     8.500   7.75782097e-02
     9.000   8.22440475e-02
     9.500   8.69215240e-02
    10.000   9.16106813e-02
    10.500   9.63115618e-02
    11.000   1.01024208e-01
    11.500   1.05748663e-01
    12.000   1.10484970e-01
    12.500   1.15233173e-01
    13.000   1.19993314e-01
    13.500   1.24765439e-01
    14.000   1.29549591e-01
    14.500   1.34345815e-01
    15.000   1.39154155e-01
    15.500   1.43974657e-01
    16.000   1.48807365e-01
    16.500   1.53652327e-01
    17.000   1.58509587e-01
    17.500   1.63379191e-01
    18.000   1.68261187e-01
    18.500   1.73155620e-01
    19.000   1.78062539e-01
    19.500   1.82981990e-01
    20.000   1.87914021e-01
    20.500   1.92858679e-01
    21.000   1.97816015e-01
    21.500   2.02786075e-01
    22.000   2.07768909e-01
    22.500   2.12764566e-01
    23.000   2.17773096e-01
    23.500   2.22794548e-01
    24.000   2.27828973e-01
    24.500   2.32876422e-01
    25.000   2.37936945e-01
    25.500   2.43010593e-01
    26.000   2.48097418e-01
    26.500   2.53197473e-01
    27.000   2.58310808e-01
    27.500   2.63437478e-01
    28.000   2.68577535e-01
    28.500   2.73731032e-01
    29.000   2.78898023e-01
    29.500   2.84078562e-01
    30.000   2.89272704e-01
    30.500   2.94480503e-01
    31.000   2.99702016e-01
    31.500   3.04937297e-01
    32.000   3.10186402e-01
    32.500   3.15449389e-01
    33.000   3.20726313e-01
    33.500   3.26017232e-01
    34.000   3.31322205e-01
    34.500   3.36641288e-01
    35.000   3.41974541e-01
    35.500   3.47322022e-01
    36.000   3.52683791e-01
    36.500   3.58059908e-01
    37.000   3.63450433e-01
    37.500   3.68855427e-01
    38.000   3.74274950e-01
    38.500   3.79709065e-01
    39.000   3.85157834e-01
    39.500   3.90621319e-01
    40.000   3.96099584e-01
    40.500   4.01592692e-01
    41.000   4.07100706e-01
    41.500   4.12623693e-01
    42.000   4.18161716e-01
    42.500   4.23714841e-01
    43.000   4.29283135e-01
    43.500   4.34866664e-01
    44.000   4.40465495e-01
    44.500   4.46079696e-01
    45.000   4.51709336e-01
    45.500   4.57354482e-01
    46.000   4.63015205e-01
    46.500   4.68691575e-01
    47.000   4.74383661e-01
    47.500   4.80091535e-01
    48.000   4.85815269e-01
    48.500   4.91554935e-01
    49.000   4.97310606e-01
    49.500   5.03082355e-01
    50.000   5.08870258e-01
    50.500   5.14674387e-01
    51.000   5.20494820e-01
    51.500   5.26331632e-01
    52.000   5.32184899e-01
    52.500   5.38054700e-01
    53.000   5.43941112e-01
    53.500   5.49844215e-01
    54.000   5.55764087e-01
    54.500   5.61700809e-01
    55.000   5.67654462e-01
    55.500   5.73625128e-01
    56.000   5.79612889e-01
    56.500   5.85617829e-01
    57.000   5.91640030e-01
    57.500   5.97679579e-01
    58.000   6.03736560e-01
    58.500   6.09811060e-01
    59.000   6.15903167e-01
    59.500   6.22012967e-01
    60.000   6.28140550e-01
    60.500   6.34286006e-01
    61.000   6.40449426e-01
    61.500   6.46630899e-01
    62.000   6.52830520e-01
    62.500   6.59048381e-01
    63.000   6.65284577e-01
    63.500   6.71539202e-01
    64.000   6.77812352e-01
    64.500   6.84104125e-01
    65.000   6.90414619e-01
    65.500   6.96743933e-01
    66.000   7.03092166e-01
    66.500   7.09459420e-01
    67.000   7.15845797e-01
    67.500   7.22251400e-01
    68.000   7.28676334e-01
    68.500   7.35120703e-01
    69.000   7.41584615e-01
    69.500   7.48068177e-01
    70.000   7.54571498e-01
    70.500   7.61094688e-01
    71.000   7.67637858e-01
    71.500   7.74201121e-01
    72.000   7.80784589e-01
    72.500   7.87388380e-01
    73.000   7.94012608e-01
    73.500   8.00657391e-01
    74.000   8.07322848e-01
    74.500   8.14009100e-01
    75.000   8.20716268e-01
    75.500   8.27444475e-01
    76.000   8.34193846e-01
    76.500   8.40964506e-01
    77.000   8.47756584e-01
    77.500   8.54570209e-01
    78.000   8.61405510e-01
    78.500   8.68262620e-01
    79.000   8.75141673e-01
    79.500   8.82042805e-01
    80.000   8.88966152e-01
    80.500   8.95911853e-01
    81.000   9.02880049e-01
    81.500   9.09870882e-01
    82.000   9.16884496e-01
    82.500   9.23921038e-01
    83.000   9.30980655e-01
    83.500   9.38063496e-01
    84.000   9.45169714e-01
    84.500   9.52299463e-01
    85.000   9.59452897e-01
    85.500   9.66630176e-01
    86.000   9.73831458e-01
    86.500   9.81056907e-01
    87.000   9.88306687e-01
    87.500   9.95580964e-01
    88.000   1.00287991e+00
    88.500   1.01020369e+00
    89.000   1.01755248e+00
    89.500   1.02492646e+00
    90.000   1.03232580e+00
    90.500   1.03975070e+00
    91.000   1.04720132e+00
    91.500   1.05467786e+00
    92.000   1.06218052e+00
    92.500   1.06970947e+00
    93.000   1.07726491e+00
    93.500   1.08484705e+00
    94.000   1.09245608e+00
    94.500   1.10009221e+00
    95.000   1.10775565e+00
    95.500   1.11544660e+00
    96.000   1.12316528e+00
    96.500   1.13091191e+00
    97.000   1.13868670e+00
    97.500   1.14648989e+00
    98.000   1.15432170e+00
    98.500   1.16218236e+00
    99.000   1.17007211e+00
    99.500   1.17799118e+00
   100.000   1.18593982e+00
   100.500   1.19391828e+00
   101.000   1.20192681e+00
   101.500   1.20996567e+00
   102.000   1.21803511e+00
   102.500   1.22613540e+00
   103.000   1.23426681e+00
   103.500   1.24242961e+00
   104.000   1.25062409e+00
   104.500   1.25885053e+00
   105.000   1.26710921e+00
   105.500   1.27540044e+00
   106.000   1.28372451e+00
   106.500   1.29208173e+00
   107.000   1.30047241e+00
   107.500   1.30889686e+00
   108.000   1.31735542e+00
   108.500   1.32584840e+00
   109.000   1.33437615e+00
   109.500   1.34293900e+00
   110.000   1.35153731e+00
   110.500   1.36017143e+00
   111.000   1.36884172e+00
   111.500   1.37754855e+00
   112.000   1.38629229e+00
   112.500   1.39507332e+00
   113.000   1.40389204e+00
   113.500   1.41274883e+00
   114.000   1.42164411e+00
   114.500   1.43057828e+00
   115.000   1.43955176e+00
   115.500   1.44856498e+00
   116.000   1.45761835e+00
   116.500   1.46671233e+00
   117.000   1.47584735e+00
   117.500   1.48502386e+00
   118.000   1.49424232e+00
   118.500   1.50350319e+00
   119.000   1.51280694e+00
   119.500   1.52215402e+00
   120.000   1.53154493e+00
   120.500   1.54098014e+00
   121.000   1.55046011e+00
   121.500   1.55998535e+00
   122.000   1.56955633e+00
   122.500   1.57917353e+00
   123.000   1.58883744e+00
   123.500   1.59854855e+00
   124.000   1.60830733e+00
   124.500   1.61811428e+00
   125.000   1.62796988e+00
   125.500   1.63787461e+00
   126.000   1.64782897e+00
   126.500   1.65783344e+00
   127.000   1.66788853e+00
   127.500   1.67799475e+00
   128.000   1.68815262e+00
   128.500   1.69836267e+00
   129.000   1.70862547e+00
   129.500   1.71894161e+00
   130.000   1.72931169e+00
   130.500   1.73973637e+00
   131.000   1.75021634e+00
   131.500   1.76075233e+00
   132.000   1.77134511e+00
   132.500   1.78199551e+00
   133.000   1.79270440e+00
   133.500   1.80347272e+00
   134.000   1.81430144e+00
   134.500   1.82519158e+00
   135.000   1.83614422e+00
   135.500   1.84716048e+00
   136.000   1.85824151e+00
   136.500   1.86938852e+00
   137.000   1.88060274e+00
   137.500   1.89188544e+00
   138.000   1.90323792e+00
   138.500   1.91466151e+00
   139.000   1.92615756e+00
   139.500   1.93772745e+00
   140.000   1.94937258e+00
   140.500   1.96109437e+00
   141.000   1.97289428e+00
   141.500   1.98477378e+00
   142.000   1.99673437e+00
   142.500   2.00877756e+00
   143.000   2.02090492e+00
   143.500   2.03311801e+00
   144.000   2.04541845e+00
   144.500   2.05780788e+00
   145.000   2.07028797e+00
   145.500   2.08286043e+00
   146.000   2.09552700e+00
   146.500   2.10828948e+00
   147.000   2.12114968e+00
   147.500   2.13410948e+00
   148.000   2.14717079e+00
   148.500   2.16033557e+00
   149.000   2.17360584e+00
   149.500   2.18698367e+00
   150.000   2.20047117e+00
   150.500   2.21407054e+00
   151.000   2.22778401e+00
   151.500   2.24161392e+00
   152.000   2.25556264e+00
   152.500   2.26963266e+00
   153.000   2.28382653e+00
   153.500   2.29814689e+00
   154.000   2.31259649e+00
   154.500   2.32717818e+00
   155.000   2.34189492e+00
   155.500   2.35674978e+00
   156.000   2.37174598e+00
   156.500   2.38688683e+00
   157.000   2.40217582e+00
   157.500   2.41761654e+00
   158.000   2.43321275e+00
   158.500   2.44896836e+00
   159.000   2.46488742e+00
   159.500   2.48097416e+00
   160.000   2.49723295e+00
   160.500   2.51366833e+00
   161.000   2.53028503e+00
   161.500   2.54708792e+00
   162.000   2.56408209e+00
   162.500   2.58127278e+00
   163.000   2.59866543e+00
   163.500   2.61626567e+00
   164.000   2.63407937e+00
   164.500   2.65211256e+00
   165.000   2.67037152e+00
   165.500   2.68886277e+00
   166.000   2.70759304e+00
   166.500   2.72656935e+00
   167.000   2.74579897e+00
   167.500   2.76528943e+00
   168.000   2.78504857e+00
   168.500   2.80508454e+00
   169.000   2.82540582e+00
   169.500   2.84602119e+00
   170.000   2.86693983e+00
   170.500   2.88817125e+00
   171.000   2.90972540e+00
   171.500   2.93161260e+00
   172.000   2.95384362e+00
   172.500   2.97642969e+00
   173.000   2.99938249e+00
   173.500   3.02271422e+00
   174.000   3.04643762e+00
   174.500   3.07056595e+00
   175.000   3.09511308e+00
   175.500   3.12009347e+00
   176.000   3.14552222e+00
   176.500   3.17141513e+00
   177.000   3.19778869e+00
   177.500   3.22466012e+00
   178.000   3.25204746e+00
   178.500   3.27996956e+00
   179.000   3.30844611e+00
   179.500   3.33749776e+00
   180.000   3.36714609e+00
   180.500   3.39741370e+00
   181.000   3.42832425e+00
   181.500   3.45990253e+00
   182.000   3.49217451e+00
   182.500   3.52516738e+00
   183.000   3.55890965e+00
   183.500   3.59343123e+00
   184.000   3.62876345e+00
   184.500   3.66493916e+00
   185.000   3.70199285e+00
   185.500   3.73996067e+00
   186.000   3.77888056e+00
   186.500   3.81879235e+00
   187.000   3.85973781e+00
   187.500   3.90176079e+00
   188.000   3.94490734e+00
   188.500   3.98922577e+00
   189.000   4.03476682e+00
   189.500   4.08158373e+00
   190.000   4.12973240e+00
   190.500   4.17927152e+00
   191.000   4.23026266e+00
   191.500   4.28277044e+00
   192.000   4.33686267e+00
   192.500   4.39261046e+00
   193.000   4.45008838e+00
   193.500   4.50937460e+00
   194.000   4.57055099e+00
   194.500   4.63370331e+00
   195.000   4.69892127e+00
   195.500   4.76629871e+00
   196.000   4.83593364e+00
   196.500   4.90792836e+00
   197.000   4.98238952e+00
   197.500   5.05942815e+00
   198.000   5.13915964e+00
   198.500   5.22170375e+00
   199.000   5.30718448e+00
   199.500   5.39572992e+00
   200.000   5.48747205e+00
   200.500   5.58254639e+00
   201.000   5.68109161e+00
   201.500   5.78324899e+00
   202.000   5.88916176e+00
   202.500   5.99897419e+00
   203.000   6.11283065e+00
   203.500   6.23087428e+00
   204.000   6.35324554e+00
   204.500   6.48008037e+00
   205.000   6.61150815e+00
   205.500   6.74764919e+00
   206.000   6.88861186e+00
   206.500   7.03448933e+00
   207.000   7.18535577e+00
   207.500   7.34126207e+00
   208.000   7.50223105e+00
   208.500   7.66825209e+00
   209.000   7.83927520e+00
   209.500   8.01520458e+00
   210.000   8.19589170e+00
   210.500   8.38112791e+00
   211.000   8.57063681e+00
   211.500   8.76406641e+00
   212.000   8.96098140e+00
   212.500   9.16085581e+00
   213.000   9.36306621e+00
   213.500   9.56688616e+00
   214.000   9.77148208e+00
   214.500   9.97591125e+00
   215.000   1.01791223e+01
   215.500   1.03799590e+01
   216.000   1.05771674e+01
   216.500   1.07694076e+01
   217.000   1.09552690e+01
   217.500   1.11332910e+01
   218.000   1.13019875e+01
   218.500   1.14598754e+01
   219.000   1.16055067e+01
   219.500   1.17375026e+01
   220.000   1.18545884e+01
   220.500   1.19556284e+01
   221.000   1.20396580e+01
   221.500   1.21059123e+01
   222.000   1.21538489e+01
   222.500   1.21831646e+01
   223.000   1.21938037e+01
   223.500   1.21859586e+01
   224.000   1.21600619e+01
   224.500   1.21167714e+01
   225.000   1.20569480e+01
   225.500   1.19816284e+01
   226.000   1.18919933e+01
   226.500   1.17893349e+01
   227.000   1.16750220e+01
   227.500   1.15504672e+01
   228.000   1.14170960e+01
   228.500   1.12763181e+01
   229.000   1.11295038e+01
   229.500   1.09779637e+01
   230.000   1.08229324e+01
   230.500   1.06655574e+01
   231.000   1.05068908e+01
   231.500   1.03478850e+01
   232.000   1.01893912e+01
   232.500   1.00321607e+01
   233.000   9.87684802e+00
   233.500   9.72401527e+00
   234.000   9.57413809e+00
   234.500   9.42761204e+00
   235.000   9.28475950e+00
   235.500   9.14583664e+00
   236.000   9.01104038e+00
   236.500   8.88051516e+00
   237.000   8.75435930e+00
   237.500   8.63263102e+00
   238.000   8.51535400e+00
   238.500   8.40252240e+00
   239.000   8.29410550e+00
   239.500   8.19005176e+00
   240.000   8.09029250e+00
   240.500   7.99474512e+00
   241.000   7.90331592e+00
   241.500   7.81590259e+00
   242.000   7.73239627e+00
   242.500   7.65268346e+00
   243.000   7.57664752e+00
   243.500   7.50417001e+00
   244.000   7.43513182e+00
   244.500   7.36941407e+00
   245.000   7.30689887e+00
   245.500   7.24746998e+00
   246.000   7.19101329e+00
   246.500   7.13741723e+00
   247.000   7.08657308e+00
   247.500   7.03837519e+00
   248.000   6.99272118e+00
   248.500   6.94951205e+00
   249.000   6.90865224e+00
   249.500   6.87004967e+00
   250.000   6.83361574e+00
   250.500   6.79926534e+00
   251.000   6.76691673e+00
   251.500   6.73649157e+00
   252.000   6.70791478e+00
   252.500   6.68111448e+00
   253.000   6.65602190e+00
   253.500   6.63257126e+00
   254.000   6.61069972e+00
   254.500   6.59034720e+00
   255.000   6.57145633e+00
   255.500   6.55397232e+00
   256.000   6.53784284e+00
   256.500   6.52301794e+00
   257.000   6.50944993e+00
   257.500   6.49709327e+00
   258.000   6.48590446e+00
   258.500   6.47584198e+00
   259.000   6.46686612e+00
   259.500   6.45893894e+00
   260.000   6.45202416e+00
   260.500   6.44608702e+00
   261.000   6.44109426e+00
   261.500   6.43701398e+00
   262.000   6.43381555e+00
   262.500   6.43146955e+00
   263.000   6.42994765e+00
   263.500   6.42922255e+00
   264.000   6.42926791e+00
   264.500   6.43005822e+00
   265.000   6.43156881e+00
   265.500   6.43377572e+00
   266.000   6.43665565e+00
   266.500   6.44018595e+00
   267.000   6.44434454e+00
   267.500   6.44910988e+00
   268.000   6.45446098e+00
   268.500   6.46037739e+00
   269.000   6.46683918e+00
   269.500   6.47382702e+00
   270.000   6.48132217e+00
   270.500   6.48930654e+00
   271.000   6.49776277e+00
   271.500   6.50667431e+00
   272.000   6.51602543e+00
   272.500   6.52580138e+00
   273.000   6.53598836e+00
   273.500   6.54657367e+00
   274.000   6.55754566e+00
   274.500   6.56889384e+00
   275.000   6.58060880e+00
   275.500   6.59268225e+00
   276.000   6.60510692e+00
   276.500   6.61787657e+00
   277.000   6.63098585e+00
   277.500   6.64443021e+00
   278.000   6.65820583e+00
   278.500   6.67230950e+00
   279.000   6.68673848e+00
   279.500   6.70149043e+00
   280.000   6.71656331e+00
   280.500   6.73195528e+00
   281.000   6.74766462e+00
   281.500   6.76368968e+00
   282.000   6.78002880e+00
   282.500   6.79668033e+00
   283.000   6.81364253e+00
   283.500   6.83091359e+00
   284.000   6.84849160e+00
   284.500   6.86637459e+00
   285.000   6.88456047e+00
   285.500   6.90304709e+00
   286.000   6.92183221e+00
   286.500   6.94091355e+00
   287.000   6.96028877e+00
   287.500   6.97995551e+00
   288.000   6.99991139e+00
   288.500   7.02015403e+00
   289.000   7.04068104e+00
   289.500   7.06149009e+00
   290.000   7.08257886e+00
   290.500   7.10394506e+00
   291.000   7.12558649e+00
   291.500   7.14750097e+00
   292.000   7.16968642e+00
   292.500   7.19214081e+00
   293.000   7.21486219e+00
   293.500   7.23784868e+00
   294.000   7.26109851e+00
   294.500   7.28460996e+00
   295.000   7.30838142e+00
   295.500   7.33241137e+00
   296.000   7.35669834e+00
   296.500   7.38124099e+00
   297.000   7.40603804e+00
   297.500   7.43108831e+00
   298.000   7.45639070e+00
   298.500   7.48194420e+00
   299.000   7.50774787e+00
   299.500   7.53380087e+00
   300.000   7.56010242e+00
   300.500   7.58665185e+00
   301.000   7.61344853e+00
   301.500   7.64049194e+00
   302.000   7.66778162e+00
   302.500   7.69531718e+00
   303.000   7.72309832e+00
   303.500   7.75112479e+00
   304.000   7.77939642e+00
   304.500   7.80791312e+00
   305.000   7.83667484e+00
   305.500   7.86568163e+00
   306.000   7.89493357e+00
   306.500   7.92443082e+00
   307.000   7.95417362e+00
   307.500   7.98416223e+00
   308.000   8.01439701e+00
   308.500   8.04487836e+00
   309.000   8.07560674e+00
   309.500   8.10658267e+00
   310.000   8.13780673e+00
   310.500   8.16927955e+00
   311.000   8.20100182e+00
   311.500   8.23297428e+00
   312.000   8.26519773e+00
   312.500   8.29767302e+00
   313.000   8.33040105e+00
   313.500   8.36338278e+00
   314.000   8.39661921e+00
   314.500   8.43011142e+00
   315.000   8.46386050e+00
   315.500   8.49786763e+00
   316.000   8.53213401e+00
   316.500   8.56666091e+00
   317.000   8.60144964e+00
   317.500   8.63650158e+00
   318.000   8.67181813e+00
   318.500   8.70740076e+00
   319.000   8.74325098e+00
   319.500   8.77937036e+00
   320.000   8.81576053e+00
   320.500   8.85242313e+00
   321.000   8.88935989e+00
   321.500   8.92657258e+00
   322.000   8.96406301e+00
   322.500   9.00183305e+00
   323.000   9.03988462e+00
   323.500   9.07821968e+00
   324.000   9.11684028e+00
   324.500   9.15574846e+00
   325.000   9.19494638e+00
   325.500   9.23443619e+00
   326.000   9.27422014e+00
   326.500   9.31430052e+00
   327.000   9.35467966e+00
   327.500   9.39535996e+00
   328.000   9.43634387e+00
   328.500   9.47763390e+00
   329.000   9.51923261e+00
   329.500   9.56114263e+00
   330.000   9.60336664e+00
   330.500   9.64590737e+00
   331.000   9.68876762e+00
   331.500   9.73195026e+00
   332.000   9.77545820e+00
   332.500   9.81929444e+00
   333.000   9.86346200e+00
   333.500   9.90796402e+00
   334.000   9.95280366e+00
   334.500   9.99798417e+00
   335.000   1.00435089e+01
   335.500   1.00893811e+01
   336.000   1.01356044e+01
   336.500   1.01821822e+01
   337.000   1.02291181e+01
   337.500   1.02764159e+01
   338.000   1.03240792e+01
   338.500   1.03721119e+01
   339.000   1.04205178e+01
   339.500   1.04693011e+01
   340.000   1.05184656e+01
   340.500   1.05680157e+01
   341.000   1.06179554e+01
   341.500   1.06682892e+01
   342.000   1.07190215e+01
   342.500   1.07701566e+01
   343.000   1.08216994e+01
   343.500   1.08736544e+01
   344.000   1.09260264e+01
   344.500   1.09788204e+01
   345.000   1.10320412e+01
   345.500   1.10856941e+01
   346.000   1.11397842e+01
   346.500   1.11943168e+01
   347.000   1.12492973e+01
   347.500   1.13047313e+01
   348.000   1.13606243e+01
   348.500   1.14169822e+01
   349.000   1.14738108e+01
   349.500   1.15311162e+01
   350.000   1.15889043e+01
   350.500   1.16471814e+01
   351.000   1.17059540e+01
   351.500   1.17652284e+01
   352.000   1.18250112e+01
   352.500   1.18853091e+01
   353.000   1.19461290e+01
   353.500   1.20074778e+01
   354.000   1.20693625e+01
   354.500   1.21317903e+01
   355.000   1.21947684e+01
   355.500   1.22583042e+01
   356.000   1.23224051e+01
   356.500   1.23870786e+01
   357.000   1.24523322e+01
   357.500   1.25181737e+01
   358.000   1.25846106e+01
   358.500   1.26516506e+01
   359.000   1.27193015e+01
   359.500   1.27875707e+01
   360.000   1.28564660e+01
   360.500   1.29259949e+01
   361.000   1.29961648e+01
   361.500   1.30669831e+01
   362.000   1.31384569e+01
   362.500   1.32105934e+01
   363.000   1.32833994e+01
   363.500   1.33568815e+01
   364.000   1.34310464e+01
   364.500   1.35059004e+01
   365.000   1.35814496e+01
   365.500   1.36577001e+01
   366.000   1.37346578e+01
   366.500   1.38123286e+01
   367.000   1.38907187e+01
   367.500   1.39698339e+01
   368.000   1.40496808e+01
   368.500   1.41302660e+01
   369.000   1.42115968e+01
   369.500   1.42936809e+01
   370.000   1.43765271e+01
   370.500   1.44601447e+01
   371.000   1.45445443e+01
   371.500   1.46297374e+01
   372.000   1.47157368e+01
   372.500   1.48025564e+01
   373.000   1.48902115e+01
   373.500   1.49787183e+01
   374.000   1.50680946e+01
   374.500   1.51583589e+01
   375.000   1.52495310e+01
   375.500   1.53416315e+01
   376.000   1.54346818e+01
   376.500   1.55287042e+01
   377.000   1.56237214e+01
   377.500   1.57197565e+01
   378.000   1.58168333e+01
   378.500   1.59149757e+01
   379.000   1.60142078e+01
   379.500   1.61145542e+01
   380.000   1.62160394e+01
   380.500   1.63186882e+01
   381.000   1.64225255e+01
   381.500   1.65275765e+01
   382.000   1.66338663e+01
   382.500   1.67414206e+01
   383.000   1.68502651e+01
   383.500   1.69604258e+01
   384.000   1.70719292e+01
   384.500   1.71848020e+01
   385.000   1.72990714e+01
   385.500   1.74147652e+01
   386.000   1.75319114e+01
   386.500   1.76505390e+01
   387.000   1.77706772e+01
   387.500   1.78923562e+01
   388.000   1.80156067e+01
   388.500   1.81404603e+01
   389.000   1.82669493e+01
   389.500   1.83951068e+01
   390.000   1.85249669e+01
   390.500   1.86565646e+01
   391.000   1.87899358e+01
   391.500   1.89251176e+01
   392.000   1.90621479e+01
   392.500   1.92010658e+01
   393.000   1.93419117e+01
   393.500   1.94847270e+01
   394.000   1.96295543e+01
   394.500   1.97764377e+01
   395.000   1.99254225e+01
   395.500   2.00765553e+01
   396.000   2.02298843e+01
   396.500   2.03854591e+01
   397.000   2.05433309e+01
   397.500   2.07035523e+01
   398.000   2.08661778e+01
   398.500   2.10312635e+01
   399.000   2.11988674e+01
   399.500   2.13690493e+01
   400.000   2.15418707e+01
   400.500   2.17173955e+01
   401.000   2.18956894e+01
   401.500   2.20768204e+01
   402.000   2.22608585e+01
   402.500   2.24478763e+01
   403.000   2.26379488e+01
   403.500   2.28311533e+01
   404.000   2.30275698e+01
   404.500   2.32272813e+01
   405.000   2.34303732e+01
   405.500   2.36369341e+01
   406.000   2.38470557e+01
   406.500   2.40608327e+01
   407.000   2.42783632e+01
   407.500   2.44997488e+01
   408.000   2.47250949e+01
   408.500   2.49545102e+01
   409.000   2.51881077e+01
   409.500   2.54260045e+01
   410.000   2.56683216e+01
   410.500   2.59151849e+01
   411.000   2.61667246e+01
   411.500   2.64230761e+01
   412.000   2.66843794e+01
   412.500   2.69507802e+01
   413.000   2.72224295e+01
   413.500   2.74994843e+01
   414.000   2.77821073e+01
   414.500   2.80704678e+01
   415.000   2.83647415e+01
   415.500   2.86651112e+01
   416.000   2.89717668e+01
   416.500   2.92849057e+01
   417.000   2.96047333e+01
   417.500   2.99314634e+01
   418.000   3.02653183e+01
   418.500   3.06065294e+01
   419.000   3.09553376e+01
   419.500   3.13119941e+01
   420.000   3.16767601e+01
   420.500   3.20499082e+01
   421.000   3.24317222e+01
   421.500   3.28224981e+01
   422.000   3.32225446e+01
   422.500   3.36321837e+01
   423.000   3.40517514e+01
   423.500   3.44815983e+01
   424.000   3.49220905e+01
   424.500   3.53736100e+01
   425.000   3.58365563e+01
   425.500   3.63113463e+01
   426.000   3.67984158e+01
   426.500   3.72982207e+01
   427.000   3.78112370e+01
   427.500   3.83379632e+01
   428.000   3.88789202e+01
   428.500   3.94346534e+01
   429.000   4.00057334e+01
   429.500   4.05927577e+01
   430.000   4.11963515e+01
   430.500   4.18171700e+01
   431.000   4.24558993e+01
   431.500   4.31132581e+01
   432.000   4.37899997e+01
   432.500   4.44869134e+01
   433.000   4.52048266e+01
   433.500   4.59446067e+01
   434.000   4.67071632e+01
   434.500   4.74934496e+01
   435.000   4.83044659e+01
   435.500   4.91412607e+01
   436.000   5.00049338e+01
   436.500   5.08966384e+01
   437.000   5.18175840e+01
   437.500   5.27690389e+01
   438.000   5.37523325e+01
   438.500   5.47688589e+01
   439.000   5.58200789e+01
   439.500   5.69075232e+01
   440.000   5.80327952e+01
   440.500   5.91975737e+01
   441.000   6.04036155e+01
   441.500   6.16527584e+01
   442.000   6.29469230e+01
   442.500   6.42881157e+01
   443.000   6.56784300e+01
   443.500   6.71200483e+01
   444.000   6.86152432e+01
   444.500   7.01663774e+01
   445.000   7.17759040e+01
   445.500   7.34463650e+01
   446.000   7.51803892e+01
   446.500   7.69806885e+01
   447.000   7.88500526e+01
   447.500   8.07913423e+01
   448.000   8.28074800e+01
   448.500   8.49014380e+01
   449.000   8.70762237e+01
   449.500   8.93348612e+01
   450.000   9.16803687e+01
   450.500   9.41157321e+01
   451.000   9.66438721e+01
   451.500   9.92676063e+01
   452.000   1.01989604e+02
   452.500   1.04812333e+02
   453.000   1.07738001e+02
   453.500   1.10768481e+02
   454.000   1.13905237e+02
   454.500   1.17149227e+02
   455.000   1.20500806e+02
   455.500   1.23959610e+02
   456.000   1.27524432e+02
   456.500   1.31193083e+02
   457.000   1.34962249e+02
   457.500   1.38827331e+02
   458.000   1.42782286e+02
   458.500   1.46819458e+02
   459.000   1.50929417e+02
   459.500   1.55100800e+02
   460.000   1.59320166e+02
   460.500   1.63571877e+02
   461.000   1.67838007e+02
   461.500   1.72098299e+02
   462.000   1.76330166e+02
   462.500   1.80508772e+02
   463.000   1.84607179e+02
   463.500   1.88596584e+02
   464.000   1.92446652e+02
   464.500   1.96125941e+02
   465.000   1.99602422e+02
   465.500   2.02844095e+02
   466.000   2.05819665e+02
   466.500   2.08499278e+02
   467.000   2.10855285e+02
   467.500   2.12862988e+02
   468.000   2.14501352e+02
   468.500   2.15753639e+02
   469.000   2.16607919e+02
   469.500   2.17057449e+02
   470.000   2.17100879e+02
   470.500   2.16742287e+02
   471.000   2.15991030e+02
   471.500   2.14861429e+02
   472.000   2.13372304e+02
   472.500   2.11546387e+02
   473.000   2.09409638e+02
   473.500   2.06990522e+02
   474.000   2.04319252e+02
   474.500   2.01427059e+02
   475.000   1.98345495e+02
   475.500   1.95105810e+02
   476.000   1.91738404e+02
   476.500   1.88272375e+02
   477.000   1.84735156e+02
   477.500   1.81152250e+02
   478.000   1.77547043e+02
   478.500   1.73940709e+02
   479.000   1.70352167e+02
   479.500   1.66798109e+02
   480.000   1.63293062e+02
   480.500   1.59849495e+02
   481.000   1.56477944e+02
   481.500   1.53187158e+02
   482.000   1.49984251e+02
   482.500   1.46874862e+02
   483.000   1.43863309e+02
   483.500   1.40952744e+02
   484.000   1.38145294e+02
   484.500   1.35442196e+02
   485.000   1.32843926e+02
   485.500   1.30350309e+02
   486.000   1.27960624e+02
   486.500   1.25673694e+02
   487.000   1.23487974e+02
   487.500   1.21401616e+02
   488.000   1.19412538e+02
   488.500   1.17518475e+02
   489.000   1.15717030e+02
   489.500   1.14005714e+02
   490.000   1.12381979e+02
   490.500   1.10843248e+02
   491.000   1.09386942e+02
   491.500   1.08010497e+02
   492.000   1.06711382e+02
   492.500   1.05487117e+02
   493.000   1.04335276e+02
   493.500   1.03253504e+02
   494.000   1.02239518e+02
   494.500   1.01291114e+02
   495.000   1.00406174e+02
   495.500   9.95826603e+01
   496.000   9.88186271e+01
   496.500   9.81122140e+01
   497.000   9.74616488e+01
   497.500   9.68652467e+01
   498.000   9.63214094e+01
   498.500   9.58286235e+01
   499.000   9.53854594e+01
   499.500   9.49905692e+01
   500.000   9.46426851e+01
   500.500   9.43406171e+01
   501.000   9.40832514e+01
   501.500   9.38695479e+01
   502.000   9.36985385e+01
   502.500   9.35693247e+01
   503.000   9.34810762e+01
   503.500   9.34330284e+01
   504.000   9.34244806e+01
   504.500   9.34547948e+01
   505.000   9.35233934e+01
   505.500   9.36297579e+01
   506.000   9.37734273e+01
   506.500   9.39539970e+01
   507.000   9.41711170e+01
   507.500   9.44244914e+01
   508.000   9.47138769e+01
   508.500   9.50390817e+01
   509.000   9.53999653e+01
   509.500   9.57964373e+01
   510.000   9.62284567e+01
   510.500   9.66960317e+01
   511.000   9.71992193e+01
   511.500   9.77381246e+01
   512.000   9.83129012e+01
   512.500   9.89237507e+01
   513.000   9.95709229e+01
   513.500   1.00254716e+02
   514.000   1.00975476e+02
   514.500   1.01733600e+02
   515.000   1.02529531e+02
   515.500   1.03363765e+02
   516.000   1.04236848e+02
   516.500   1.05149377e+02
   517.000   1.06102001e+02
   517.500   1.07095423e+02
   518.000   1.08130400e+02
   518.500   1.09207746e+02
   519.000   1.10328331e+02
   519.500   1.11493083e+02
   520.000   1.12702993e+02
   520.500   1.13959112e+02
   521.000   1.15262554e+02
   521.500   1.16614500e+02
   522.000   1.18016200e+02
   522.500   1.19468973e+02
   523.000   1.20974210e+02
   523.500   1.22533377e+02
   524.000   1.24148021e+02
   524.500   1.25819764e+02
   525.000   1.27550317e+02
   525.500   1.29341475e+02
   526.000   1.31195123e+02
   526.500   1.33113239e+02
   527.000   1.35097901e+02
   527.500   1.37151286e+02
   528.000   1.39275677e+02
   528.500   1.41473467e+02
   529.000   1.43747164e+02
   529.500   1.46099398e+02
   530.000   1.48532922e+02
   530.500   1.51050624e+02
   531.000   1.53655531e+02
   531.500   1.56350815e+02
   532.000   1.59139804e+02
   532.500   1.62025991e+02
   533.000   1.65013041e+02
   533.500   1.68104806e+02
   534.000   1.71305331e+02
   534.500   1.74618873e+02
   535.000   1.78049911e+02
   535.500   1.81603159e+02
   536.000   1.85283584e+02
   536.500   1.89096421e+02
   537.000   1.93047186e+02
   537.500   1.97141698e+02
   538.000   2.01386090e+02
   538.500   2.05786827e+02
   539.000   2.10350722e+02
   539.500   2.15084953e+02
   540.000   2.19997075e+02
   540.500   2.25095034e+02
   541.000   2.30387183e+02
   541.500   2.35882292e+02
   542.000   2.41589560e+02
   542.500   2.47518626e+02
   543.000   2.53679581e+02
   543.500   2.60082971e+02
   544.000   2.66739808e+02
   544.500   2.73661579e+02
   545.000   2.80860240e+02
   545.500   2.88348227e+02
   546.000   2.96138448e+02
   546.500   3.04244279e+02
   547.000   3.12679551e+02
   547.500   3.21458536e+02
   548.000   3.30595919e+02
   548.500   3.40106764e+02
   549.000   3.50006472e+02
   549.500   3.60310722e+02
   550.000   3.71035399e+02
   550.500   3.82196505e+02
   551.000   3.93810047e+02
   551.500   4.05891907e+02
   552.000   4.18457676e+02
   552.500   4.31522470e+02
   553.000   4.45100703e+02
   553.500   4.59205819e+02
   554.000   4.73849992e+02
   554.500   4.89043766e+02
   555.000   5.04795655e+02
   555.500   5.21111678e+02
   556.000   5.37994843e+02
   556.500   5.55444561e+02
   557.000   5.73456007e+02
   557.500   5.92019413e+02
   558.000   6.11119304e+02
   558.500   6.30733688e+02
   559.000   6.50833195e+02
   559.500   6.71380199e+02
   560.000   6.92327932e+02
   560.500   7.13619623e+02
   561.000   7.35187691e+02
   561.500   7.56953041e+02
   562.000   7.78824508e+02
   562.500   8.00698504e+02
   563.000   8.22458927e+02
   563.500   8.43977397e+02
   564.000   8.65113885e+02
   564.500   8.85717771e+02
   565.000   9.05629406e+02
   565.500   9.24682171e+02
   566.000   9.42705060e+02
   566.500   9.59525754e+02
   567.000   9.74974122e+02
   567.500   9.88886052e+02
   568.000   1.00110749e+03
   568.500   1.01149851e+03
   569.000   1.01993726e+03
   569.500   1.02632354e+03
   570.000   1.03058185e+03
   570.500   1.03266378e+03
   571.000   1.03254953e+03
   571.500   1.03024846e+03
   572.000   1.02579875e+03
   572.500   1.01926609e+03
   573.000   1.01074150e+03
   573.500   1.00033843e+03
   574.000   9.88189331e+02
   574.500   9.74441773e+02
   575.000   9.59254475e+02
   575.500   9.42793275e+02
   576.000   9.25227294e+02
   576.500   9.06725396e+02
   577.000   8.87453058e+02
   577.500   8.67569706e+02
   578.000   8.47226556e+02
   578.500   8.26564960e+02
   579.000   8.05715231e+02
   579.500   7.84795917e+02
   580.000   7.63913459e+02
   580.500   7.43162190e+02
   581.000   7.22624594e+02
   581.500   7.02371790e+02
   582.000   6.82464167e+02
   582.500   6.62952128e+02
   583.000   6.43876906e+02
   583.500   6.25271408e+02
   584.000   6.07161063e+02
   584.500   5.89564653e+02
   585.000   5.72495112e+02
   585.500   5.55960273e+02
   586.000   5.39963568e+02
   586.500   5.24504664e+02
   587.000   5.09580049e+02
   587.500   4.95183549e+02
   588.000   4.81306796e+02
   588.500   4.67939639e+02
   589.000   4.55070502e+02
   589.500   4.42686705e+02
   590.000   4.30774728e+02
   590.500   4.19320451e+02
   591.000   4.08309351e+02
   591.500   3.97726671e+02
   592.000   3.87557562e+02
   592.500   3.77787202e+02
   593.000   3.68400893e+02
   593.500   3.59384142e+02
   594.000   3.50722724e+02
   594.500   3.42402732e+02
   595.000   3.34410619e+02
   595.500   3.26733227e+02
   596.000   3.19357807e+02
   596.500   3.12272036e+02
   597.000   3.05464024e+02
   597.500   2.98922319e+02
   598.000   2.92635906e+02
   598.500   2.86594206e+02
   599.000   2.80787069e+02
   599.500   2.75204763e+02
   600.000   2.69837971e+02
   600.500   2.64677774e+02
   601.000   2.59715642e+02
   601.500   2.54943423e+02
   602.000   2.50353325e+02
   602.500   2.45937909e+02
   603.000   2.41690069e+02
   603.500   2.37603027e+02
   604.000   2.33670310e+02
   604.500   2.29885746e+02
   605.000   2.26243444e+02
   605.500   2.22737788e+02
   606.000   2.19363418e+02
   606.500   2.16115225e+02
   607.000   2.12988334e+02
   607.500   2.09978097e+02
   608.000   2.07080081e+02
   608.500   2.04290058e+02
   609.000   2.01603994e+02
   609.500   1.99018042e+02
   610.000   1.96528533e+02
   610.500   1.94131966e+02
   611.000   1.91825000e+02
   611.500   1.89604447e+02
   612.000   1.87467266e+02
   612.500   1.85410554e+02
   613.000   1.83431540e+02
   613.500   1.81527579e+02
   614.000   1.79696146e+02
   614.500   1.77934828e+02
   615.000   1.76241325e+02
   615.500   1.74613437e+02
   616.000   1.73049065e+02
   616.500   1.71546201e+02
   617.000   1.70102931e+02
   617.500   1.68717424e+02
   618.000   1.67387932e+02
   618.500   1.66112783e+02
   619.000   1.64890380e+02
   619.500   1.63719200e+02
   620.000   1.62597784e+02
   620.500   1.61524740e+02
   621.000   1.60498737e+02
   621.500   1.59518504e+02
   622.000   1.58582826e+02
   622.500   1.57690543e+02
   623.000   1.56840547e+02
   623.500   1.56031778e+02
   624.000   1.55263225e+02
   624.500   1.54533924e+02
   625.000   1.53842953e+02
   625.500   1.53189432e+02
   626.000   1.52572521e+02
   626.500   1.51991421e+02
   627.000   1.51445368e+02
   627.500   1.50933635e+02
   628.000   1.50455528e+02
   628.500   1.50010388e+02
   629.000   1.49597587e+02
   629.500   1.49216527e+02
   630.000   1.48866641e+02
   630.500   1.48547390e+02
   631.000   1.48258263e+02
   631.500   1.47998775e+02
   632.000   1.47768468e+02
   632.500   1.47566907e+02
   633.000   1.47393684e+02
   633.500   1.47248413e+02
   634.000   1.47130730e+02
   634.500   1.47040295e+02
   635.000   1.46976789e+02
   635.500   1.46939913e+02
   636.000   1.46929389e+02
   636.500   1.46944960e+02
   637.000   1.46986386e+02
   637.500   1.47053450e+02
   638.000   1.47145949e+02
   638.500   1.47263701e+02
   639.000   1.47406543e+02
   639.500   1.47574325e+02
   640.000   1.47766920e+02
   640.500   1.47984213e+02
   641.000   1.48226110e+02
   641.500   1.48492530e+02
   642.000   1.48783410e+02
   642.500   1.49098704e+02
   643.000   1.49438380e+02
   643.500   1.49802423e+02
   644.000   1.50190834e+02
   644.500   1.50603630e+02
   645.000   1.51040842e+02
   645.500   1.51502519e+02
   646.000   1.51988724e+02
   646.500   1.52499535e+02
   647.000   1.53035048e+02
   647.500   1.53595373e+02
   648.000   1.54180636e+02
   648.500   1.54790979e+02
   649.000   1.55426560e+02
   649.500   1.56087554e+02
   650.000   1.56774150e+02
   650.500   1.57486556e+02
   651.000   1.58224996e+02
   651.500   1.58989710e+02
   652.000   1.59780956e+02
   652.500   1.60599010e+02
   653.000   1.61444164e+02
   653.500   1.62316730e+02
   654.000   1.63217038e+02
   654.500   1.64145436e+02
   655.000   1.65102292e+02
   655.500   1.66087995e+02
   656.000   1.67102952e+02
   656.500   1.68147592e+02
   657.000   1.69222365e+02
   657.500   1.70327743e+02
   658.000   1.71464220e+02
   658.500   1.72632315e+02
   659.000   1.73832568e+02
   659.500   1.75065546e+02
   660.000   1.76331840e+02
   660.500   1.77632068e+02
   661.000   1.78966875e+02
   661.500   1.80336933e+02
   662.000   1.81742943e+02
   662.500   1.83185639e+02
   663.000   1.84665781e+02
   663.500   1.86184165e+02
   664.000   1.87741619e+02
   664.500   1.89339006e+02
   665.000   1.90977224e+02
   665.500   1.92657210e+02
   666.000   1.94379938e+02
   666.500   1.96146424e+02
   667.000   1.97957726e+02
   667.500   1.99814943e+02
   668.000   2.01719223e+02
   668.500   2.03671761e+02
   669.000   2.05673798e+02
   669.500   2.07726632e+02
   670.000   2.09831611e+02
   670.500   2.11990141e+02
   671.000   2.14203685e+02
   671.500   2.16473769e+02
   672.000   2.18801983e+02
   672.500   2.21189983e+02
   673.000   2.23639496e+02
   673.500   2.26152323e+02
   674.000   2.28730339e+02
   674.500   2.31375502e+02
   675.000   2.34089854e+02
   675.500   2.36875524e+02
   676.000   2.39734733e+02
   676.500   2.42669800e+02
   677.000   2.45683144e+02
   677.500   2.48777294e+02
   678.000   2.51954885e+02
   678.500   2.55218673e+02
   679.000   2.58571536e+02
   679.500   2.62016480e+02
   680.000   2.65556647e+02
   680.500   2.69195321e+02
   681.000   2.72935933e+02
   681.500   2.76782073e+02
   682.000   2.80737495e+02
   682.500   2.84806123e+02
   683.000   2.88992065e+02
   683.500   2.93299616e+02
   684.000   2.97733273e+02
   684.500   3.02297741e+02
   685.000   3.06997943e+02
   685.500   3.11839035e+02
   686.000   3.16826414e+02
   686.500   3.21965728e+02
   687.000   3.27262892e+02
   687.500   3.32724097e+02
   688.000   3.38355827e+02
   688.500   3.44164868e+02
   689.000   3.50158321e+02
   689.500   3.56343622e+02
   690.000   3.62728550e+02
   690.500   3.69321241e+02
   691.000   3.76130207e+02
   691.500   3.83164343e+02
   692.000   3.90432948e+02
   692.500   3.97945730e+02
   693.000   4.05712823e+02
   693.500   4.13744797e+02
   694.000   4.22052666e+02
   694.500   4.30647896e+02
   695.000   4.39542410e+02
   695.500   4.48748588e+02
   696.000   4.58279268e+02
   696.500   4.68147738e+02
   697.000   4.78367721e+02
   697.500   4.88953360e+02
   698.000   4.99919188e+02
   698.500   5.11280095e+02
   699.000   5.23051275e+02
   699.500   5.35248171e+02
   700.000   5.47886395e+02
   700.500   5.60981638e+02
   701.000   5.74549553e+02
   701.500   5.88605621e+02
   702.000   6.03164986e+02
   702.500   6.18242264e+02
   703.000   6.33851313e+02
   703.500   6.50004971e+02
   704.000   6.66714752e+02
   704.500   6.83990489e+02
   705.000   7.01839943e+02
   705.500   7.20268344e+02
   706.000   7.39277890e+02
   706.500   7.58867180e+02
   707.000   7.79030600e+02
   707.500   7.99757652e+02
   708.000   8.21032232e+02
   708.500   8.42831873e+02
   709.000   8.65126961e+02
   709.500   8.87879934e+02
   710.000   9.11044505e+02
   710.500   9.34564919e+02
   711.000   9.58375291e+02
   711.500   9.82399070e+02
   712.000   1.00654866e+03
   712.500   1.03072529e+03
   713.000   1.05481911e+03
   713.500   1.07870967e+03
   714.000   1.10226680e+03
   714.500   1.12535181e+03
   715.000   1.14781933e+03
   715.500   1.16951941e+03
   716.000   1.19030026e+03
   716.500   1.21001125e+03
   717.000   1.22850634e+03
   717.500   1.24564771e+03
   718.000   1.26130940e+03
   718.500   1.27538098e+03
   719.000   1.28777089e+03
   719.500   1.29840935e+03
   720.000   1.30725078e+03
   720.500   1.31427530e+03
   721.000   1.31948964e+03
   721.500   1.32292697e+03
   722.000   1.32464605e+03
   722.500   1.32472942e+03
   723.000   1.32328102e+03
   723.500   1.32042318e+03
   724.000   1.31629325e+03
   724.500   1.31103999e+03
   725.000   1.30481996e+03
   725.500   1.29779398e+03
   726.000   1.29012384e+03
   726.500   1.28196940e+03
   727.000   1.27348601e+03
   727.500   1.26482250e+03
   728.000   1.25611953e+03
   728.500   1.24750843e+03
   729.000   1.23911045e+03
   729.500   1.23103640e+03
   730.000   1.22338656e+03
   730.500   1.21625091e+03
   731.000   1.20970950e+03
   731.500   1.20383308e+03
   732.000   1.19868374e+03
   732.500   1.19431569e+03
   733.000   1.19077602e+03
   733.500   1.18810557e+03
   734.000   1.18633966e+03
   734.500   1.18550891e+03
   735.000   1.18563997e+03
   735.500   1.18675618e+03
   736.000   1.18887824e+03
   736.500   1.19202479e+03
   737.000   1.19621296e+03
   737.500   1.20145883e+03
   738.000   1.20777792e+03
   738.500   1.21518553e+03
   739.000   1.22369714e+03
   739.500   1.23332872e+03
   740.000   1.24409702e+03
   740.500   1.25601980e+03
   741.000   1.26911611e+03
   741.500   1.28340646e+03
   742.000   1.29891303e+03
   742.500   1.31565984e+03
   743.000   1.33367290e+03
   743.500   1.35298038e+03
   744.000   1.37361272e+03
   744.500   1.39560275e+03
   745.000   1.41898584e+03
   745.500   1.44379999e+03
   746.000   1.47008595e+03
   746.500   1.49788726e+03
   747.000   1.52725044e+03
   747.500   1.55822495e+03
   748.000   1.59086337e+03
   748.500   1.62522140e+03
   749.000   1.66135789e+03
   749.500   1.69933496e+03
   750.000   1.73921790e+03
   750.500   1.78107526e+03
   751.000   1.82497874e+03
   751.500   1.87100320e+03
   752.000   1.91922646e+03
   752.500   1.96972923e+03
   753.000   2.02259488e+03
   753.500   2.07790912e+03
   754.000   2.13575974e+03
   754.500   2.19623609e+03
   755.000   2.25942863e+03
   755.500   2.32542817e+03
   756.000   2.39432518e+03
   756.500   2.46620877e+03
   757.000   2.54116557e+03
   757.500   2.61927843e+03
   758.000   2.70062485e+03
   758.500   2.78527514e+03
   759.000   2.87329038e+03
   759.500   2.96471997e+03
   760.000   3.05959898e+03
   760.500   3.15794499e+03
   761.000   3.25975475e+03
   761.500   3.36500028e+03
   762.000   3.47362476e+03
   762.500   3.58553795e+03
   763.000   3.70061136e+03
   763.500   3.81867313e+03
   764.000   3.93950275e+03
   764.500   4.06282570e+03
   765.000   4.18830828e+03
   765.500   4.31555261e+03
   766.000   4.44409227e+03
   766.500   4.57338878e+03
   767.000   4.70282918e+03
   767.500   4.83172518e+03
   768.000   4.95931415e+03
   768.500   5.08476239e+03
   769.000   5.20717108e+03
   769.500   5.32558494e+03
   770.000   5.43900418e+03
   770.500   5.54639937e+03
   771.000   5.64672946e+03
   771.500   5.73896243e+03
   772.000   5.82209803e+03
   772.500   5.89519203e+03
   773.000   5.95738082e+03
   773.500   6.00790546e+03
   774.000   6.04613386e+03
   774.500   6.07158002e+03
   775.000   6.08391921e+03
   775.500   6.08299825e+03
   776.000   6.06884025e+03
   776.500   6.04164352e+03
   777.000   6.00177475e+03
   777.500   5.94975694e+03
   778.000   5.88625260e+03
   778.500   5.81204350e+03
   779.000   5.72800775e+03
   779.500   5.63509567e+03
   780.000   5.53430538e+03
   780.500   5.42665926e+03
   781.000   5.31318209e+03
   781.500   5.19488153e+03
   782.000   5.07273138e+03
   782.500   4.94765792e+03
   783.000   4.82052921e+03
   783.500   4.69214747e+03
   784.000   4.56324415e+03
   784.500   4.43447742e+03
   785.000   4.30643180e+03
   785.500   4.17961949e+03
   786.000   4.05448303e+03
   786.500   3.93139903e+03
   787.000   3.81068263e+03
   787.500   3.69259232e+03
   788.000   3.57733512e+03
   788.500   3.46507169e+03
   789.000   3.35592148e+03
   789.500   3.24996754e+03
   790.000   3.14726120e+03
   790.500   3.04782636e+03
   791.000   2.95166342e+03
   791.500   2.85875289e+03
   792.000   2.76905863e+03
   792.500   2.68253075e+03
   793.000   2.59910812e+03
   793.500   2.51872069e+03
   794.000   2.44129139e+03
   794.500   2.36673784e+03
   795.000   2.29497383e+03
   795.500   2.22591054e+03
   796.000   2.15945761e+03
   796.500   2.09552403e+03
   797.000   2.03401888e+03
   797.500   1.97485192e+03
   798.000   1.91793414e+03
   798.500   1.86317812e+03
   799.000   1.81049835e+03
   799.500   1.75981152e+03
   800.000   1.71103667e+03
   800.500   1.66409533e+03
   801.000   1.61891165e+03
   801.500   1.57541241e+03
   802.000   1.53352708e+03
   802.500   1.49318779e+03
   803.000   1.45432935e+03
   803.500   1.41688921e+03
   804.000   1.38080738e+03
   804.500   1.34602639e+03
   805.000   1.31249124e+03
   805.500   1.28014932e+03
   806.000   1.24895030e+03
   806.500   1.21884610e+03
   807.000   1.18979078e+03
   807.500   1.16174046e+03
   808.000   1.13465326e+03
   808.500   1.10848916e+03
   809.000   1.08321001e+03
   809.500   1.05877937e+03
   810.000   1.03516247e+03
   810.500   1.01232614e+03
   811.000   9.90238708e+02
   811.500   9.68869976e+02
   812.000   9.48191107e+02
   812.500   9.28174583e+02
   813.000   9.08794143e+02
   813.500   8.90024714e+02
   814.000   8.71842364e+02
   814.500   8.54224240e+02
   815.000   8.37148519e+02
   815.500   8.20594357e+02
   816.000   8.04541845e+02
   816.500   7.88971957e+02
   817.000   7.73866514e+02
   817.500   7.59208141e+02
   818.000   7.44980224e+02
   818.500   7.31166879e+02
   819.000   7.17752913e+02
   819.500   7.04723794e+02
   820.000   6.92065613e+02
   820.500   6.79765064e+02
   821.000   6.67809403e+02
   821.500   6.56186432e+02
   822.000   6.44884467e+02
   822.500   6.33892315e+02
   823.000   6.23199251e+02
   823.500   6.12794997e+02
   824.000   6.02669699e+02
   824.500   5.92813908e+02
   825.000   5.83218562e+02
   825.500   5.73874967e+02
   826.000   5.64774781e+02
   826.500   5.55909998e+02
   827.000   5.47272931e+02
   827.500   5.38856199e+02
   828.000   5.30652712e+02
   828.500   5.22655661e+02
   829.000   5.14858499e+02
   829.500   5.07254939e+02
   830.000   4.99838932e+02
   830.500   4.92604664e+02
   831.000   4.85546543e+02
   831.500   4.78659190e+02
   832.000   4.71937428e+02
   832.500   4.65376276e+02
   833.000   4.58970939e+02
   833.500   4.52716799e+02
   834.000   4.46609412e+02
   834.500   4.40644494e+02
   835.000   4.34817922e+02
   835.500   4.29125720e+02
   836.000   4.23564057e+02
   836.500   4.18129243e+02
   837.000   4.12817716e+02
   837.500   4.07626047e+02
   838.000   4.02550924e+02
   838.500   3.97589155e+02
   839.000   3.92737662e+02
   839.500   3.87993474e+02
   840.000   3.83353723e+02
   840.500   3.78815644e+02
   841.000   3.74376566e+02
   841.500   3.70033912e+02
   842.000   3.65785195e+02
   842.500   3.61628012e+02
   843.000   3.57560044e+02
   843.500   3.53579053e+02
   844.000   3.49682877e+02
   844.500   3.45869426e+02
   845.000   3.42136686e+02
   845.500   3.38482710e+02
   846.000   3.34905616e+02
   846.500   3.31403591e+02
   847.000   3.27974880e+02
   847.500   3.24617792e+02
   848.000   3.21330693e+02
   848.500   3.18112005e+02
   849.000   3.14960205e+02
   849.500   3.11873826e+02
   850.000   3.08851450e+02
   850.500   3.05891710e+02
   851.000   3.02993288e+02
   851.500   3.00154914e+02
   852.000   2.97375363e+02
   852.500   2.94653456e+02
   853.000   2.91988058e+02
   853.500   2.89378078e+02
   854.000   2.86822464e+02
   854.500   2.84320208e+02
   855.000   2.81870342e+02
   855.500   2.79471936e+02
   856.000   2.77124099e+02
   856.500   2.74825979e+02
   857.000   2.72576760e+02
   857.500   2.70375664e+02
   858.000   2.68221948e+02
   858.500   2.66114907e+02
   859.000   2.64053868e+02
   859.500   2.62038196e+02
   860.000   2.60067287e+02
   860.500   2.58140574e+02
   861.000   2.56257523e+02
   861.500   2.54417631e+02
   862.000   2.52620431e+02
   862.500   2.50865486e+02
   863.000   2.49152393e+02
   863.500   2.47480778e+02
   864.000   2.45850300e+02
   864.500   2.44260648e+02
   865.000   2.42711540e+02
   865.500   2.41202723e+02
   866.000   2.39733971e+02
   866.500   2.38305087e+02
   867.000   2.36915895e+02
   867.500   2.35566245e+02
   868.000   2.34256007e+02
   868.500   2.32985071e+02
   869.000   2.31753339e+02
   869.500   2.30560729e+02
   870.000   2.29407164e+02
   870.500   2.28292571e+02
   871.000   2.27216873e+02
   871.500   2.26179984e+02
   872.000   2.25181802e+02
   872.500   2.24222197e+02
   873.000   2.23301002e+02
   873.500   2.22418005e+02
   874.000   2.21572932e+02
   874.500   2.20765431e+02
   875.000   2.19995064e+02
   875.500   2.19261278e+02
   876.000   2.18563397e+02
   876.500   2.17900592e+02
   877.000   2.17271866e+02
   877.500   2.16676027e+02
   878.000   2.16111666e+02
   878.500   2.15577137e+02
   879.000   2.15070528e+02
   879.500   2.14589651e+02
   880.000   2.14132015e+02
   880.500   2.13694821e+02
   881.000   2.13274955e+02
   881.500   2.12868984e+02
   882.000   2.12473172e+02
   882.500   2.12083502e+02
   883.000   2.11695704e+02
   883.500   2.11305306e+02
   884.000   2.10907691e+02
   884.500   2.10498174e+02
   885.000   2.10072081e+02
   885.500   2.09624850e+02
   886.000   2.09152132e+02
   886.500   2.08649895e+02
   887.000   2.08114528e+02
   887.500   2.07542944e+02
   888.000   2.06932665e+02
   888.500   2.06281892e+02
   889.000   2.05589559e+02
   889.500   2.04855360e+02
   890.000   2.04079752e+02
   890.500   2.03263939e+02
   891.000   2.02409817e+02
   891.500   2.01519918e+02
   892.000   2.00597322e+02
   892.500   1.99645560e+02
   893.000   1.98668516e+02
   893.500   1.97670317e+02
   894.000   1.96655233e+02
   894.500   1.95627580e+02
   895.000   1.94591626e+02
   895.500   1.93551526e+02
   896.000   1.92511247e+02
   896.500   1.91474525e+02
   897.000   1.90444826e+02
   897.500   1.89425320e+02
   898.000   1.88418868e+02
   898.500   1.87428015e+02
   899.000   1.86454998e+02
   899.500   1.85501753e+02
   900.000   1.84569928e+02
   900.500   1.83660906e+02
   901.000   1.82775821e+02
   901.500   1.81915581e+02
   902.000   1.81080893e+02
   902.500   1.80272282e+02
   903.000   1.79490112e+02
   903.500   1.78734610e+02
   904.000   1.78005882e+02
   904.500   1.77303931e+02
   905.000   1.76628672e+02
   905.500   1.75979952e+02
   906.000   1.75357554e+02
   906.500   1.74761216e+02
   907.000   1.74190639e+02
   907.500   1.73645492e+02
   908.000   1.73125428e+02
   908.500   1.72630081e+02
   909.000   1.72159079e+02
   909.500   1.71712045e+02
   910.000   1.71288602e+02
   910.500   1.70888379e+02
   911.000   1.70511009e+02
   911.500   1.70156134e+02
   912.000   1.69823409e+02
   912.500   1.69512499e+02
   913.000   1.69223083e+02
   913.500   1.68954857e+02
   914.000   1.68707527e+02
   914.500   1.68480821e+02
   915.000   1.68274478e+02
   915.500   1.68088257e+02
   916.000   1.67921930e+02
   916.500   1.67775288e+02
   917.000   1.67648139e+02
   917.500   1.67540304e+02
   918.000   1.67451623e+02
   918.500   1.67381952e+02
   919.000   1.67331161e+02
   919.500   1.67299137e+02
   920.000   1.67285782e+02
   920.500   1.67291013e+02
   921.000   1.67314763e+02
   921.500   1.67356976e+02
   922.000   1.67417616e+02
   922.500   1.67496657e+02
   923.000   1.67594089e+02
   923.500   1.67709914e+02
   924.000   1.67844150e+02
   924.500   1.67996828e+02
   925.000   1.68167991e+02
   925.500   1.68357697e+02
   926.000   1.68566017e+02
   926.500   1.68793034e+02
   927.000   1.69038845e+02
   927.500   1.69303560e+02
   928.000   1.69587302e+02
   928.500   1.69890207e+02
   929.000   1.70212426e+02
   929.500   1.70554119e+02
   930.000   1.70915463e+02
   930.500   1.71296647e+02
   931.000   1.71697873e+02
   931.500   1.72119359e+02
   932.000   1.72561333e+02
   932.500   1.73024039e+02
   933.000   1.73507737e+02
   933.500   1.74012698e+02
   934.000   1.74539209e+02
   934.500   1.75087573e+02
   935.000   1.75658106e+02
   935.500   1.76251143e+02
   936.000   1.76867031e+02
   936.500   1.77506135e+02
   937.000   1.78168838e+02
   937.500   1.78855539e+02
   938.000   1.79566653e+02
   938.500   1.80302615e+02
   939.000   1.81063878e+02
   939.500   1.81850915e+02
   940.000   1.82664217e+02
   940.500   1.83504297e+02
   941.000   1.84371688e+02
   941.500   1.85266944e+02
   942.000   1.86190642e+02
   942.500   1.87143383e+02
   943.000   1.88125792e+02
   943.500   1.89138516e+02
   944.000   1.90182230e+02
   944.500   1.91257636e+02
   945.000   1.92365462e+02
   945.500   1.93506466e+02
   946.000   1.94681433e+02
   946.500   1.95891183e+02
   947.000   1.97136564e+02
   947.500   1.98418459e+02
   948.000   1.99737786e+02
   948.500   2.01095498e+02
   949.000   2.02492586e+02
   949.500   2.03930080e+02
   950.000   2.05409049e+02
   950.500   2.06930607e+02
   951.000   2.08495910e+02
   951.500   2.10106161e+02
   952.000   2.11762609e+02
   952.500   2.13466555e+02
   953.000   2.15219352e+02
   953.500   2.17022406e+02
   954.000   2.18877181e+02
   954.500   2.20785199e+02
   955.000   2.22748047e+02
   955.500   2.24767373e+02
   956.000   2.26844895e+02
   956.500   2.28982403e+02
   957.000   2.31181757e+02
   957.500   2.33444899e+02
   958.000   2.35773851e+02
   958.500   2.38170718e+02
   959.000   2.40637696e+02
   959.500   2.43177076e+02
   960.000   2.45791242e+02
   960.500   2.48482686e+02
   961.000   2.51254004e+02
   961.500   2.54107905e+02
   962.000   2.57047217e+02
   962.500   2.60074893e+02
   963.000   2.63194015e+02
   963.500   2.66407801e+02
   964.000   2.69719615e+02
   964.500   2.73132969e+02
   965.000   2.76651534e+02
   965.500   2.80279149e+02
   966.000   2.84019825e+02
   966.500   2.87877758e+02
   967.000   2.91857337e+02
   967.500   2.95963154e+02
   968.000   3.00200013e+02
   968.500   3.04572942e+02
   969.000   3.09087206e+02
   969.500   3.13748317e+02
   970.000   3.18562045e+02
   970.500   3.23534438e+02
   971.000   3.28671827e+02
   971.500   3.33980850e+02
   972.000   3.39468459e+02
   972.500   3.45141942e+02
   973.000   3.51008938e+02
   973.500   3.57077454e+02
   974.000   3.63355885e+02
   974.500   3.69853030e+02
   975.000   3.76578118e+02
   975.500   3.83540820e+02
   976.000   3.90751281e+02
   976.500   3.98220133e+02
   977.000   4.05958521e+02
   977.500   4.13978128e+02
   978.000   4.22291196e+02
   978.500   4.30910553e+02
   979.000   4.39849631e+02
   979.500   4.49122499e+02
   980.000   4.58743877e+02
   980.500   4.68729168e+02
   981.000   4.79094473e+02
   981.500   4.89856614e+02
   982.000   5.01033154e+02
   982.500   5.12642411e+02
   983.000   5.24703471e+02
   983.500   5.37236194e+02
   984.000   5.50261221e+02
   984.500   5.63799966e+02
   985.000   5.77874607e+02
   985.500   5.92508062e+02
   986.000   6.07723956e+02
   986.500   6.23546576e+02
   987.000   6.40000805e+02
   987.500   6.57112039e+02
   988.000   6.74906083e+02
   988.500   6.93409018e+02
   989.000   7.12647037e+02
   989.500   7.32646251e+02
   990.000   7.53432446e+02
   990.500   7.75030800e+02
   991.000   7.97465547e+02
   991.500   8.20759582e+02
   992.000   8.44933999e+02
   992.500   8.70007556e+02
   993.000   8.95996065e+02
   993.500   9.22911688e+02
   994.000   9.50762154e+02
   994.500   9.79549860e+02
   995.000   1.00927089e+03
   995.500   1.03991394e+03
   996.000   1.07145911e+03
   996.500   1.10387664e+03
   997.000   1.13712558e+03
   997.500   1.17115237e+03
   998.000   1.20588944e+03
   998.500   1.24125377e+03
   999.000   1.27714556e+03
   999.500   1.31344702e+03
  1000.000   1.35002134e+03
  1000.500   1.38671197e+03
  1001.000   1.42334221e+03
  1001.500   1.45971542e+03
  1002.000   1.49561563e+03
  1002.500   1.53080895e+03
  1003.000   1.56504568e+03
  1003.500   1.59806326e+03
  1004.000   1.62959000e+03
  1004.500   1.65934971e+03
  1005.000   1.68706704e+03
  1005.500   1.71247341e+03
  1006.000   1.73531346e+03
  1006.500   1.75535165e+03
  1007.000   1.77237877e+03
  1007.500   1.78621813e+03
  1008.000   1.79673095e+03
  1008.500   1.80382083e+03
  1009.000   1.80743693e+03
  1009.500   1.80757567e+03
  1010.000   1.80428100e+03
  1010.500   1.79764293e+03
  1011.000   1.78779476e+03
  1011.500   1.77490894e+03
  1012.000   1.75919185e+03
  1012.500   1.74087783e+03
  1013.000   1.72022280e+03
  1013.500   1.69749769e+03
  1014.000   1.67298199e+03
  1014.500   1.64695777e+03
  1015.000   1.61970421e+03
  1015.500   1.59149290e+03
  1016.000   1.56258388e+03
  1016.500   1.53322259e+03
  1017.000   1.50363754e+03
  1017.500   1.47403882e+03
  1018.000   1.44461723e+03
  1018.500   1.41554400e+03
  1019.000   1.38697107e+03
  1019.500   1.35903168e+03
  1020.000   1.33184131e+03
  1020.500   1.30549878e+03
  1021.000   1.28008756e+03
  1021.500   1.25567710e+03
  1022.000   1.23232416e+03
  1022.500   1.21007420e+03
  1023.000   1.18896263e+03
  1023.500   1.16901601e+03
  1024.000   1.15025318e+03
  1024.500   1.13268625e+03
  1025.000   1.11632148e+03
  1025.500   1.10116006e+03
  1026.000   1.08719872e+03
  1026.500   1.07443034e+03
  1027.000   1.06284427e+03
  1027.500   1.05242673e+03
  1028.000   1.04316092e+03
  1028.500   1.03502720e+03
  1029.000   1.02800301e+03
  1029.500   1.02206283e+03
  1030.000   1.01717797e+03
  1030.500   1.01331631e+03
  1031.000   1.01044197e+03
  1031.500   1.00851488e+03
  1032.000   1.00749037e+03
  1032.500   1.00731862e+03
  1033.000   1.00794422e+03
  1033.500   1.00930561e+03
  1034.000   1.01133465e+03
  1034.500   1.01395614e+03
  1035.000   1.01708760e+03
  1035.500   1.02063900e+03
  1036.000   1.02451282e+03
  1036.500   1.02860422e+03
  1037.000   1.03280159e+03
  1037.500   1.03698723e+03
  1038.000   1.04103853e+03
  1038.500   1.04482939e+03
  1039.000   1.04823198e+03
  1039.500   1.05111884e+03
  1040.000   1.05336527e+03
  1040.500   1.05485184e+03
  1041.000   1.05546711e+03
  1041.500   1.05511028e+03
  1042.000   1.05369372e+03
  1042.500   1.05114527e+03
  1043.000   1.04741013e+03
  1043.500   1.04245228e+03
  1044.000   1.03625532e+03
  1044.500   1.02882266e+03
  1045.000   1.02017712e+03
  1045.500   1.01035985e+03
  1046.000   9.99428786e+02
  1046.500   9.87456542e+02
  1047.000   9.74528063e+02
  1047.500   9.60737983e+02
  1048.000   9.46187939e+02
  1048.500   9.30983895e+02
  1049.000   9.15233616e+02
  1049.500   8.99044358e+02
  1050.000   8.82520845e+02
  1050.500   8.65763570e+02
  1051.000   8.48867426e+02
  1051.500   8.31920683e+02
  1052.000   8.15004278e+02
  1052.500   7.98191389e+02
  1053.000   7.81547269e+02
  1053.500   7.65129286e+02
  1054.000   7.48987140e+02
  1054.500   7.33163207e+02
  1055.000   7.17692985e+02
  1055.500   7.02605604e+02
  1056.000   6.87924371e+02
  1056.500   6.73667341e+02
  1057.000   6.59847874e+02
  1057.500   6.46475183e+02
  1058.000   6.33554863e+02
  1058.500   6.21089371e+02
  1059.000   6.09078487e+02
  1059.500   5.97519728e+02
  1060.000   5.86408721e+02
  1060.500   5.75739539e+02
  1061.000   5.65505004e+02
  1061.500   5.55696947e+02
  1062.000   5.46306442e+02
  1062.500   5.37324002e+02
  1063.000   5.28739757e+02
  1063.500   5.20543602e+02
  1064.000   5.12725321e+02
  1064.500   5.05274694e+02
  1065.000   4.98181590e+02
  1065.500   4.91436039e+02
  1066.000   4.85028294e+02
  1066.500   4.78948883e+02
  1067.000   4.73188645e+02
  1067.500   4.67738768e+02
  1068.000   4.62590807e+02
  1068.500   4.57736710e+02
  1069.000   4.53168825e+02
  1069.500   4.48879912e+02
  1070.000   4.44863151e+02
  1070.500   4.41112137e+02
  1071.000   4.37620887e+02
  1071.500   4.34383833e+02
  1072.000   4.31395819e+02
  1072.500   4.28652091e+02
  1073.000   4.26148296e+02
  1073.500   4.23880463e+02
  1074.000   4.21845001e+02
  1074.500   4.20038678e+02
  1075.000   4.18458615e+02
  1075.500   4.17102263e+02
  1076.000   4.15967389e+02
  1076.500   4.15052054e+02
  1077.000   4.14354594e+02
  1077.500   4.13873591e+02
  1078.000   4.13607846e+02
  1078.500   4.13556348e+02
  1079.000   4.13718238e+02
  1079.500   4.14092767e+02
  1080.000   4.14679251e+02
  1080.500   4.15477021e+02
  1081.000   4.16485365e+02
  1081.500   4.17703462e+02
  1082.000   4.19130313e+02
  1082.500   4.20764663e+02
  1083.000   4.22604915e+02
  1083.500   4.24649037e+02
  1084.000   4.26894462e+02
  1084.500   4.29337986e+02
  1085.000   4.31975656e+02
  1085.500   4.34802662e+02
  1086.000   4.37813223e+02
  1086.500   4.41000488e+02
  1087.000   4.44356433e+02
  1087.500   4.47871786e+02
  1088.000   4.51535961e+02
  1088.500   4.55337029e+02
  1089.000   4.59261720e+02
  1089.500   4.63295469e+02
  1090.000   4.67422512e+02
  1090.500   4.71626040e+02
  1091.000   4.75888413e+02
  1091.500   4.80191440e+02
  1092.000   4.84516713e+02
  1092.500   4.88846009e+02
  1093.000   4.93161735e+02
  1093.500   4.97447399e+02
  1094.000   5.01688111e+02
  1094.500   5.05871062e+02
  1095.000   5.09985985e+02
  1095.500   5.14025543e+02
  1096.000   5.17985656e+02
  1096.500   5.21865709e+02
  1097.000   5.25668655e+02
  1097.500   5.29400976e+02
  1098.000   5.33072529e+02
  1098.500   5.36696256e+02
  1099.000   5.40287777e+02
  1099.500   5.43864897e+02
  1100.000   5.47447022e+02
  1100.500   5.51054530e+02
  1101.000   5.54708113e+02
  1101.500   5.58428103e+02
  1102.000   5.62233818e+02
  1102.500   5.66142936e+02
  1103.000   5.70170903e+02
  1103.500   5.74330401e+02
  1104.000   5.78630869e+02
  1104.500   5.83078088e+02
  1105.000   5.87673833e+02
  1105.500   5.92415591e+02
  1106.000   5.97296358e+02
  1106.500   6.02304514e+02
  1107.000   6.07423781e+02
  1107.500   6.12633280e+02
  1108.000   6.17907691e+02
  1108.500   6.23217531e+02
  1109.000   6.28529545e+02
  1109.500   6.33807249e+02
  1110.000   6.39011583e+02
  1110.500   6.44101719e+02
  1111.000   6.49035980e+02
  1111.500   6.53772867e+02
  1112.000   6.58272167e+02
  1112.500   6.62496104e+02
  1113.000   6.66410493e+02
  1113.500   6.69985839e+02
  1114.000   6.73198345e+02
  1114.500   6.76030764e+02
  1115.000   6.78473061e+02
  1115.500   6.80522844e+02
  1116.000   6.82185547e+02
  1116.500   6.83474344e+02
  1117.000   6.84409826e+02
  1117.500   6.85019439e+02
  1118.000   6.85336727e+02
  1118.500   6.85400437e+02
  1119.000   6.85253515e+02
  1119.500   6.84942061e+02
  1120.000   6.84514286e+02
  1120.500   6.84019514e+02
  1121.000   6.83507266e+02
  1121.500   6.83026454e+02
  1122.000   6.82624700e+02
  1122.500   6.82347788e+02
  1123.000   6.82239254e+02
  1123.500   6.82340097e+02
  1124.000   6.82688614e+02
  1124.500   6.83320337e+02
  1125.000   6.84268057e+02
  1125.500   6.85561919e+02
  1126.000   6.87229577e+02
  1126.500   6.89296384e+02
  1127.000   6.91785619e+02
  1127.500   6.94718726e+02
  1128.000   6.98115560e+02
  1128.500   7.01994644e+02
  1129.000   7.06373405e+02
  1129.500   7.11268416e+02
  1130.000   7.16695614e+02
  1130.500   7.22670511e+02
  1131.000   7.29208387e+02
  1131.500   7.36324462e+02
  1132.000   7.44034052e+02
  1132.500   7.52352719e+02
  1133.000   7.61296385e+02
  1133.500   7.70881445e+02
  1134.000   7.81124856e+02
  1134.500   7.92044209e+02
  1135.000   8.03657791e+02
  1135.500   8.15984622e+02
  1136.000   8.29044478e+02
  1136.500   8.42857893e+02
  1137.000   8.57446149e+02
  1137.500   8.72831230e+02
  1138.000   8.89035765e+02
  1138.500   9.06082937e+02
  1139.000   9.23996366e+02
  1139.500   9.42799954e+02
  1140.000   9.62517698e+02
  1140.500   9.83173457e+02
  1141.000   1.00479067e+03
  1141.500   1.02739202e+03
  1142.000   1.05099906e+03
  1142.500   1.07563171e+03
  1143.000   1.10130778e+03
  1143.500   1.12804233e+03
  1144.000   1.15584696e+03
  1144.500   1.18472907e+03
  1145.000   1.21469091e+03
  1145.500   1.24572869e+03
  1146.000   1.27783144e+03
  1146.500   1.31097985e+03
  1147.000   1.34514508e+03
  1147.500   1.38028739e+03
  1148.000   1.41635478e+03
  1148.500   1.45328169e+03
  1149.000   1.49098757e+03
  1149.500   1.52937566e+03
  1150.000   1.56833187e+03
  1150.500   1.60772385e+03
  1151.000   1.64740039e+03
  1151.500   1.68719120e+03
  1152.000   1.72690718e+03
  1152.500   1.76634129e+03
  1153.000   1.80527005e+03
  1153.500   1.84345586e+03
  1154.000   1.88065005e+03
  1154.500   1.91659679e+03
  1155.000   1.95103775e+03
  1155.500   1.98371747e+03
  1156.000   2.01438935e+03
  1156.500   2.04282190e+03
  1157.000   2.06880521e+03
  1157.500   2.09215726e+03
  1158.000   2.11272971e+03
  1158.500   2.13041299e+03
  1159.000   2.14514031e+03
  1159.500   2.15689042e+03
  1160.000   2.16568887e+03
  1160.500   2.17160786e+03
  1161.000   2.17476448e+03
  1161.500   2.17531763e+03
  1162.000   2.17346367e+03
  1162.500   2.16943117e+03
  1163.000   2.16347492e+03
  1163.500   2.15586961e+03
  1164.000   2.14690345e+03
  1164.500   2.13687190e+03
  1165.000   2.12607191e+03
  1165.500   2.11479672e+03
  1166.000   2.10333127e+03
  1166.500   2.09194854e+03
  1167.000   2.08090646e+03
  1167.500   2.07044573e+03
  1168.000   2.06078817e+03
  1168.500   2.05213578e+03
  1169.000   2.04467016e+03
  1169.500   2.03855243e+03
  1170.000   2.03392337e+03
  1170.500   2.03090373e+03
  1171.000   2.02959468e+03
  1171.500   2.03007826e+03
  1172.000   2.03241774e+03
  1172.500   2.03665797e+03
  1173.000   2.04282547e+03
  1173.500   2.05092845e+03
  1174.000   2.06095658e+03
  1174.500   2.07288061e+03
  1175.000   2.08665175e+03
  1175.500   2.10220093e+03
  1176.000   2.11943792e+03
  1176.500   2.13825034e+03
  1177.000   2.15850268e+03
  1177.500   2.18003539e+03
  1178.000   2.20266401e+03
  1178.500   2.22617873e+03
  1179.000   2.25034418e+03
  1179.500   2.27489976e+03
  1180.000   2.29956064e+03
  1180.500   2.32401946e+03
  1181.000   2.34794891e+03
  1181.500   2.37100527e+03
  1182.000   2.39283291e+03
  1182.500   2.41306978e+03
  1183.000   2.43135387e+03
  1183.500   2.44733036e+03
  1184.000   2.46065939e+03
  1184.500   2.47102416e+03
  1185.000   2.47813898e+03
  1185.500   2.48175684e+03
  1186.000   2.48167630e+03
  1186.500   2.47774719e+03
  1187.000   2.46987476e+03
  1187.500   2.45802223e+03
  1188.000   2.44221131e+03
  1188.500   2.42252095e+03
  1189.000   2.39908421e+03
  1189.500   2.37208341e+03
  1190.000   2.34174409e+03
  1190.500   2.30832778e+03
  1191.000   2.27212424e+03
  1191.500   2.23344345e+03
  1192.000   2.19260763e+03
  1192.500   2.14994376e+03
  1193.000   2.10577674e+03
  1193.500   2.06042338e+03
  1194.000   2.01418737e+03
  1194.500   1.96735529e+03
  1195.000   1.92019356e+03
  1195.500   1.87294639e+03
  1196.000   1.82583456e+03
  1196.500   1.77905491e+03
  1197.000   1.73278054e+03
  1197.500   1.68716146e+03
  1198.000   1.64232564e+03
  1198.500   1.59838035e+03
  1199.000   1.55541371e+03
  1199.500   1.51349632e+03
  1200.000   1.47268293e+03
  1200.500   1.43301416e+03
  1201.000   1.39451813e+03
  1201.500   1.35721198e+03
  1202.000   1.32110338e+03
  1202.500   1.28619185e+03
  1203.000   1.25246999e+03
  1203.500   1.21992464e+03
  1204.000   1.18853780e+03
  1204.500   1.15828761e+03
  1205.000   1.12914906e+03
  1205.500   1.10109469e+03
  1206.000   1.07409522e+03
  1206.500   1.04812001e+03
  1207.000   1.02313753e+03
  1207.500   9.99115716e+02
  1208.000   9.76022290e+02
  1208.500   9.53825019e+02
  1209.000   9.32491931e+02
  1209.500   9.11991493e+02
  1210.000   8.92292751e+02
  1210.500   8.73365448e+02
  1211.000   8.55180110e+02
  1211.500   8.37708114e+02
  1212.000   8.20921738e+02
  1212.500   8.04794192e+02
  1213.000   7.89299643e+02
  1213.500   7.74413222e+02
  1214.000   7.60111027e+02
  1214.500   7.46370119e+02
  1215.000   7.33168508e+02
  1215.500   7.20485138e+02
  1216.000   7.08299867e+02
  1216.500   6.96593445e+02
  1217.000   6.85347488e+02
  1217.500   6.74544455e+02
  1218.000   6.64167617e+02
  1218.500   6.54201029e+02
  1219.000   6.44629506e+02
  1219.500   6.35438593e+02
  1220.000   6.26614534e+02
  1220.500   6.18144249e+02
  1221.000   6.10015307e+02
  1221.500   6.02215897e+02
  1222.000   5.94734805e+02
  1222.500   5.87561389e+02
  1223.000   5.80685557e+02
  1223.500   5.74097741e+02
  1224.000   5.67788880e+02
  1224.500   5.61750396e+02
  1225.000   5.55974178e+02
  1225.500   5.50452558e+02
  1226.000   5.45178299e+02
  1226.500   5.40144576e+02
  1227.000   5.35344958e+02
  1227.500   5.30773400e+02
  1228.000   5.26424220e+02
  1228.500   5.22292094e+02
  1229.000   5.18372039e+02
  1229.500   5.14659402e+02
  1230.000   5.11149852e+02
  1230.500   5.07839367e+02
  1231.000   5.04724228e+02
  1231.500   5.01801006e+02
  1232.000   4.99066557e+02
  1232.500   4.96518016e+02
  1233.000   4.94152788e+02
  1233.500   4.91968539e+02
  1234.000   4.89963197e+02
  1234.500   4.88134943e+02
  1235.000   4.86482203e+02
  1235.500   4.85003650e+02
  1236.000   4.83698194e+02
  1236.500   4.82564982e+02
  1237.000   4.81603390e+02
  1237.500   4.80813024e+02
  1238.000   4.80193712e+02
  1238.500   4.79745503e+02
  1239.000   4.79468662e+02
  1239.500   4.79363666e+02
  1240.000   4.79431201e+02
  1240.500   4.79672153e+02
  1241.000   4.80087607e+02
  1241.500   4.80678840e+02
  1242.000   4.81447315e+02
  1242.500   4.82394670e+02
  1243.000   4.83522714e+02
  1243.500   4.84833417e+02
  1244.000   4.86328900e+02
  1244.500   4.88011423e+02
  1245.000   4.89883377e+02
  1245.500   4.91947269e+02
  1246.000   4.94205714e+02
  1246.500   4.96661421e+02
  1247.000   4.99317186e+02
  1247.500   5.02175881e+02
  1248.000   5.05240449e+02
  1248.500   5.08513905e+02
  1249.000   5.11999335e+02
  1249.500   5.15699909e+02
  1250.000   5.19618897e+02
  1250.500   5.23759695e+02
  1251.000   5.28125860e+02
  1251.500   5.32721160e+02
  1252.000   5.37549632e+02
  1252.500   5.42615652e+02
  1253.000   5.47924018e+02
  1253.500   5.53480041e+02
  1254.000   5.59289640e+02
  1254.500   5.65359449e+02
  1255.000   5.71696913e+02
  1255.500   5.78310389e+02
  1256.000   5.85209231e+02
  1256.500   5.92403861e+02
  1257.000   5.99905819e+02
  1257.500   6.07727795e+02
  1258.000   6.15883622e+02
  1258.500   6.24388249e+02
  1259.000   6.33257682e+02
  1259.500   6.42508885e+02
  1260.000   6.52159664e+02
  1260.500   6.62228509e+02
  1261.000   6.72734424e+02
  1261.500   6.83696716e+02
  1262.000   6.95134775e+02
  1262.500   7.07067817e+02
  1263.000   7.19514617e+02
  1263.500   7.32493206e+02
  1264.000   7.46020547e+02
  1264.500   7.60112176e+02
  1265.000   7.74781809e+02
  1265.500   7.90040910e+02
  1266.000   8.05898212e+02
  1266.500   8.22359189e+02
  1267.000   8.39425477e+02
  1267.500   8.57094232e+02
  1268.000   8.75357435e+02
  1268.500   8.94201146e+02
  1269.000   9.13604694e+02
  1269.500   9.33539842e+02
  1270.000   9.53969907e+02
  1270.500   9.74848886e+02
  1271.000   9.96120591e+02
  1271.500   1.01771784e+03
  1272.000   1.03956173e+03
  1272.500   1.06156106e+03
  1273.000   1.08361197e+03
  1273.500   1.10559777e+03
  1274.000   1.12738917e+03
  1274.500   1.14884480e+03
  1275.000   1.16981230e+03
  1275.500   1.19012971e+03
  1276.000   1.20962760e+03
  1276.500   1.22813153e+03
  1277.000   1.24546512e+03
  1277.500   1.26145360e+03
  1278.000   1.27592761e+03
  1278.500   1.28872734e+03
  1279.000   1.29970672e+03
  1279.500   1.30873745e+03
  1280.000   1.31571282e+03
  1280.500   1.32055094e+03
  1281.000   1.32319732e+03
  1281.500   1.32362661e+03
  1282.000   1.32184342e+03
  1282.500   1.31788213e+03
  1283.000   1.31180573e+03
  1283.500   1.30370373e+03
  1284.000   1.29368939e+03
  1284.500   1.28189618e+03
  1285.000   1.26847398e+03
  1285.500   1.25358487e+03
  1286.000   1.23739909e+03
  1286.500   1.22009095e+03
  1287.000   1.20183515e+03
  1287.500   1.18280347e+03
  1288.000   1.16316188e+03
  1288.500   1.14306828e+03
  1289.000   1.12267063e+03
  1289.500   1.10210568e+03
  1290.000   1.08149813e+03
  1290.500   1.06096022e+03
  1291.000   1.04059165e+03
  1291.500   1.02047984e+03
  1292.000   1.00070035e+03
  1292.500   9.81317552e+02
  1293.000   9.62385392e+02
  1293.500   9.43948198e+02
  1294.000   9.26041574e+02
  1294.500   9.08693281e+02
  1295.000   8.91924105e+02
  1295.500   8.75748692e+02
  1296.000   8.60176339e+02
  1296.500   8.45211725e+02
  1297.000   8.30855590e+02
  1297.500   8.17105348e+02
  1298.000   8.03955641e+02
  1298.500   7.91398831e+02
  1299.000   7.79425436e+02
  1299.500   7.68024519e+02
  1300.000   7.57184017e+02
  1300.500   7.46891033e+02
  1301.000   7.37132091e+02
  1301.500   7.27893342e+02
  1302.000   7.19160749e+02
  1302.500   7.10920242e+02
  1303.000   7.03157842e+02
  1303.500   6.95859769e+02
  1304.000   6.89012529e+02
  1304.500   6.82602987e+02
  1305.000   6.76618418e+02
  1305.500   6.71046558e+02
  1306.000   6.65875635e+02
  1306.500   6.61094393e+02
  1307.000   6.56692115e+02
  1307.500   6.52658631e+02
  1308.000   6.48984326e+02
  1308.500   6.45660146e+02
  1309.000   6.42677589e+02
  1309.500   6.40028709e+02
  1310.000   6.37706106e+02
  1310.500   6.35702916e+02
  1311.000   6.34012803e+02
  1311.500   6.32629944e+02
  1312.000   6.31549016e+02
  1312.500   6.30765184e+02
  1313.000   6.30274077e+02
  1313.500   6.30071779e+02
  1314.000   6.30154801e+02
  1314.500   6.30520065e+02
  1315.000   6.31164877e+02
  1315.500   6.32086902e+02
  1316.000   6.33284138e+02
  1316.500   6.34754880e+02
  1317.000   6.36497687e+02
  1317.500   6.38511342e+02
  1318.000   6.40794810e+02
  1318.500   6.43347185e+02
  1319.000   6.46167638e+02
  1319.500   6.49255352e+02
  1320.000   6.52609458e+02
  1320.500   6.56228953e+02
  1321.000   6.60112617e+02
  1321.500   6.64258922e+02
  1322.000   6.68665926e+02
  1322.500   6.73331165e+02
  1323.000   6.78251532e+02
  1323.500   6.83423153e+02
  1324.000   6.88841257e+02
  1324.500   6.94500040e+02
  1325.000   7.00392534e+02
  1325.500   7.06510476e+02
  1326.000   7.12844189e+02
  1326.500   7.19382483e+02
  1327.000   7.26112569e+02
  1327.500   7.33020019e+02
  1328.000   7.40088754e+02
  1328.500   7.47301090e+02
  1329.000   7.54637840e+02
  1329.500   7.62078487e+02
  1330.000   7.69601422e+02
  1330.500   7.77184270e+02
  1331.000   7.84804288e+02
  1331.500   7.92438833e+02
  1332.000   8.00065900e+02
  1332.500   8.07664705e+02
  1333.000   8.15216292e+02
  1333.500   8.22704155e+02
  1334.000   8.30114823e+02
  1334.500   8.37438402e+02
  1335.000   8.44669029e+02
  1335.500   8.51805219e+02
  1336.000   8.58850090e+02
  1336.500   8.65811445e+02
  1337.000   8.72701709e+02
  1337.500   8.79537727e+02
  1338.000   8.86340438e+02
  1338.500   8.93134441e+02
  1339.000   8.99947477e+02
  1339.500   9.06809868e+02
  1340.000   9.13753920e+02
  1340.500   9.20813339e+02
  1341.000   9.28022675e+02
  1341.500   9.35416812e+02
  1342.000   9.43030520e+02
  1342.500   9.50898090e+02
  1343.000   9.59053030e+02
  1343.500   9.67527857e+02
  1344.000   9.76353944e+02
  1344.500   9.85561452e+02
  1345.000   9.95179308e+02
  1345.500   1.00523524e+03
  1346.000   1.01575586e+03
  1346.500   1.02676676e+03
  1347.000   1.03829264e+03
  1347.500   1.05035751e+03
  1348.000   1.06298478e+03
  1348.500   1.07619747e+03
  1349.000   1.09001837e+03
  1349.500   1.10447023e+03
  1350.000   1.11957589e+03
  1350.500   1.13535848e+03
  1351.000   1.15184154e+03
  1351.500   1.16904920e+03
  1352.000   1.18700631e+03
  1352.500   1.20573859e+03
  1353.000   1.22527273e+03
  1353.500   1.24563655e+03
  1354.000   1.26685911e+03
  1354.500   1.28897084e+03
  1355.000   1.31200361e+03
  1355.500   1.33599091e+03
  1356.000   1.36096789e+03
  1356.500   1.38697153e+03
  1357.000   1.41404069e+03
  1357.500   1.44221624e+03
  1358.000   1.47154119e+03
  1358.500   1.50206073e+03
  1359.000   1.53382238e+03
  1359.500   1.56687607e+03
  1360.000   1.60127422e+03
  1360.500   1.63707188e+03
  1361.000   1.67432675e+03
  1361.500   1.71309933e+03
  1362.000   1.75345294e+03
  1362.500   1.79545381e+03
  1363.000   1.83917113e+03
  1363.500   1.88467710e+03
  1364.000   1.93204692e+03
  1364.500   1.98135881e+03
  1365.000   2.03269398e+03
  1365.500   2.08613654e+03
  1366.000   2.14177345e+03
  1366.500   2.19969429e+03
  1367.000   2.25999113e+03
  1367.500   2.32275823e+03
  1368.000   2.38809168e+03
  1368.500   2.45608899e+03
  1369.000   2.52684850e+03
  1369.500   2.60046882e+03
  1370.000   2.67704791e+03
  1370.500   2.75668225e+03
  1371.000   2.83946564e+03
  1371.500   2.92548790e+03
  1372.000   3.01483333e+03
  1372.500   3.10757893e+03
  1373.000   3.20379233e+03
  1373.500   3.30352940e+03
  1374.000   3.40683162e+03
  1374.500   3.51372302e+03
  1375.000   3.62420680e+03
  1375.500   3.73826155e+03
  1376.000   3.85583713e+03
  1376.500   3.97685012e+03
  1377.000   4.10117902e+03
  1377.500   4.22865901e+03
  1378.000   4.35907665e+03
  1378.500   4.49216432e+03
  1379.000   4.62759474e+03
  1379.500   4.76497574e+03
  1380.000   4.90384536e+03
  1380.500   5.04366774e+03
  1381.000   5.18383005e+03
  1381.500   5.32364075e+03
  1382.000   5.46232973e+03
  1382.500   5.59905054e+03
  1383.000   5.73288529e+03
  1383.500   5.86285241e+03
  1384.000   5.98791756e+03
  1384.500   6.10700788e+03
  1385.000   6.21902950e+03
  1385.500   6.32288803e+03
  1386.000   6.41751172e+03
  1386.500   6.50187642e+03
  1387.000   6.57503160e+03
  1387.500   6.63612619e+03
  1388.000   6.68443320e+03
  1388.500   6.71937169e+03
  1389.000   6.74052498e+03
  1389.500   6.74765412e+03
  1390.000   6.74070565e+03
  1390.500   6.71981337e+03
  1391.000   6.68529389e+03
  1391.500   6.63763628e+03
  1392.000   6.57748645e+03
  1392.500   6.50562719e+03
  1393.000   6.42295492e+03
  1393.500   6.33045447e+03
  1394.000   6.22917311e+03
  1394.500   6.12019492e+03
  1395.000   6.00461661e+03
  1395.500   5.88352550e+03
  1396.000   5.75798031e+03
  1396.500   5.62899508e+03
  1397.000   5.49752633e+03
  1397.500   5.36446351e+03
  1398.000   5.23062244e+03
  1398.500   5.09674158e+03
  1399.000   4.96348065e+03
  1399.500   4.83142126e+03
  1400.000   4.70106924e+03
  1400.500   4.57285814e+03
  1401.000   4.44715370e+03
  1401.500   4.32425890e+03
  1402.000   4.20441934e+03
  1402.500   4.08782881e+03
  1403.000   3.97463477e+03
  1403.500   3.86494371e+03
  1404.000   3.75882624e+03
  1404.500   3.65632183e+03
  1405.000   3.55744325e+03
  1405.500   3.46218058e+03
  1406.000   3.37050485e+03
  1406.500   3.28237130e+03
  1407.000   3.19772229e+03
  1407.500   3.11648983e+03
  1408.000   3.03859784e+03
  1408.500   2.96396405e+03
  1409.000   2.89250174e+03
  1409.500   2.82412110e+03
  1410.000   2.75873053e+03
  1410.500   2.69623761e+03
  1411.000   2.63655000e+03
  1411.500   2.57957614e+03
  1412.000   2.52522588e+03
  1412.500   2.47341092e+03
  1413.000   2.42404521e+03
  1413.500   2.37704531e+03
  1414.000   2.33233055e+03
  1414.500   2.28982327e+03
  1415.000   2.24944893e+03
  1415.500   2.21113619e+03
  1416.000   2.17481700e+03
  1416.500   2.14042661e+03
  1417.000   2.10790356e+03
  1417.500   2.07718970e+03
  1418.000   2.04823014e+03
  1418.500   2.02097324e+03
  1419.000   1.99537050e+03
  1419.500   1.97137659e+03
  1420.000   1.94894922e+03
  1420.500   1.92804912e+03
  1421.000   1.90863997e+03
  1421.500   1.89068831e+03
  1422.000   1.87416350e+03
  1422.500   1.85903765e+03
  1423.000   1.84528555e+03
  1423.500   1.83288461e+03
  1424.000   1.82181479e+03
  1424.500   1.81205854e+03
  1425.000   1.80360074e+03
  1425.500   1.79642864e+03
  1426.000   1.79053178e+03
  1426.500   1.78590192e+03
  1427.000   1.78253300e+03
  1427.500   1.78042104e+03
  1428.000   1.77956403e+03
  1428.500   1.77996192e+03
  1429.000   1.78161644e+03
  1429.500   1.78453103e+03
  1430.000   1.78871070e+03
  1430.500   1.79416191e+03
  1431.000   1.80089235e+03
  1431.500   1.80891084e+03
  1432.000   1.81822703e+03
  1432.500   1.82885120e+03
  1433.000   1.84079399e+03
  1433.500   1.85406605e+03
  1434.000   1.86867769e+03
  1434.500   1.88463851e+03
  1435.000   1.90195691e+03
  1435.500   1.92063957e+03
  1436.000   1.94069098e+03
  1436.500   1.96211274e+03
  1437.000   1.98490301e+03
  1437.500   2.00905573e+03
  1438.000   2.03455998e+03
  1438.500   2.06139922e+03
  1439.000   2.08955056e+03
  1439.500   2.11898406e+03
  1440.000   2.14966210e+03
  1440.500   2.18153879e+03
  1441.000   2.21455957e+03
  1441.500   2.24866095e+03
  1442.000   2.28377042e+03
  1442.500   2.31980673e+03
  1443.000   2.35668036e+03
  1443.500   2.39429436e+03
  1444.000   2.43254556e+03
  1444.500   2.47132606e+03
  1445.000   2.51052513e+03
  1445.500   2.55003131e+03
  1446.000   2.58973473e+03
  1446.500   2.62952953e+03
  1447.000   2.66931624e+03
  1447.500   2.70900391e+03
  1448.000   2.74851197e+03
  1448.500   2.78777154e+03
  1449.000   2.82672603e+03
  1449.500   2.86533109e+03
  1450.000   2.90355360e+03
  1450.500   2.94136985e+03
  1451.000   2.97876288e+03
  1451.500   3.01571907e+03
  1452.000   3.05222411e+03
  1452.500   3.08825855e+03
  1453.000   3.12379317e+03
  1453.500   3.15878438e+03
  1454.000   3.19316990e+03
  1454.500   3.22686504e+03
  1455.000   3.25975970e+03
  1455.500   3.29171647e+03
  1456.000   3.32256987e+03
  1456.500   3.35212692e+03
  1457.000   3.38016924e+03
  1457.500   3.40645647e+03
  1458.000   3.43073130e+03
  1458.500   3.45272570e+03
  1459.000   3.47216837e+03
  1459.500   3.48879309e+03
  1460.000   3.50234759e+03
  1460.500   3.51260258e+03
  1461.000   3.51936056e+03
  1461.500   3.52246386e+03
  1462.000   3.52180156e+03
  1462.500   3.51731492e+03
  1463.000   3.50900093e+03
  1463.500   3.49691395e+03
  1464.000   3.48116516e+03
  1464.500   3.46192015e+03
  1465.000   3.43939460e+03
  1465.500   3.41384844e+03
  1466.000   3.38557885e+03
  1466.500   3.35491250e+03
  1467.000   3.32219738e+03
  1467.500   3.28779473e+03
  1468.000   3.25207124e+03
  1468.500   3.21539201e+03
  1469.000   3.17811426e+03
  1469.500   3.14058211e+03
  1470.000   3.10312236e+03
  1470.500   3.06604132e+03
  1471.000   3.02962266e+03
  1471.500   2.99412613e+03
  1472.000   2.95978709e+03
  1472.500   2.92681672e+03
  1473.000   2.89540277e+03
  1473.500   2.86571070e+03
  1474.000   2.83788520e+03
  1474.500   2.81205180e+03
  1475.000   2.78831869e+03
  1475.500   2.76677857e+03
  1476.000   2.74751043e+03
  1476.500   2.73058131e+03
  1477.000   2.71604797e+03
  1477.500   2.70395841e+03
  1478.000   2.69435329e+03
  1478.500   2.68726710e+03
  1479.000   2.68272934e+03
  1479.500   2.68076538e+03
  1480.000   2.68139720e+03
  1480.500   2.68464407e+03
  1481.000   2.69052288e+03
  1481.500   2.69904849e+03
  1482.000   2.71023378e+03
  1482.500   2.72408961e+03
  1483.000   2.74062462e+03
  1483.500   2.75984477e+03
  1484.000   2.78175283e+03
  1484.500   2.80634757e+03
  1485.000   2.83362285e+03
  1485.500   2.86356648e+03
  1486.000   2.89615888e+03
  1486.500   2.93137153e+03
  1487.000   2.96916528e+03
  1487.500   3.00948839e+03
  1488.000   3.05227440e+03
  1488.500   3.09743990e+03
  1489.000   3.14488210e+03
  1489.500   3.19447635e+03
  1490.000   3.24607356e+03
  1490.500   3.29949779e+03
  1491.000   3.35454390e+03
  1491.500   3.41097543e+03
  1492.000   3.46852297e+03
  1492.500   3.52688305e+03
  1493.000   3.58571770e+03
  1493.500   3.64465500e+03
  1494.000   3.70329068e+03
  1494.500   3.76119091e+03
  1495.000   3.81789657e+03
  1495.500   3.87292894e+03
  1496.000   3.92579683e+03
  1496.500   3.97600525e+03
  1497.000   4.02306528e+03
  1497.500   4.06650497e+03
  1498.000   4.10588095e+03
  1498.500   4.14079021e+03
  1499.000   4.17088157e+03
  1499.500   4.19586630e+03
  1500.000   4.21552729e+03
  1500.500   4.22972633e+03
  1501.000   4.23840893e+03
  1501.500   4.24160657e+03
  1502.000   4.23943613e+03
  1502.500   4.23209658e+03
  1503.000   4.21986309e+03
  1503.500   4.20307894e+03
  1504.000   4.18214574e+03
  1504.500   4.15751237e+03
  1505.000   4.12966329e+03
  1505.500   4.09910676e+03
  1506.000   4.06636346e+03
  1506.500   4.03195582e+03
  1507.000   3.99639854e+03
  1507.500   3.96019037e+03
  1508.000   3.92380729e+03
  1508.500   3.88769719e+03
  1509.000   3.85227580e+03
  1509.500   3.81792401e+03
  1510.000   3.78498619e+03
  1510.500   3.75376945e+03
  1511.000   3.72454368e+03
  1511.500   3.69754209e+03
  1512.000   3.67296218e+03
  1512.500   3.65096688e+03
  1513.000   3.63168579e+03
  1513.500   3.61521651e+03
  1514.000   3.60162564e+03
  1514.500   3.59094986e+03
  1515.000   3.58319659e+03
  1515.500   3.57834452e+03
  1516.000   3.57634386e+03
  1516.500   3.57711639e+03
  1517.000   3.58055529e+03
  1517.500   3.58652489e+03
  1518.000   3.59486036e+03
  1518.500   3.60536740e+03
  1519.000   3.61782217e+03
  1519.500   3.63197148e+03
  1520.000   3.64753334e+03
  1520.500   3.66419820e+03
  1521.000   3.68163083e+03
  1521.500   3.69947303e+03
  1522.000   3.71734729e+03
  1522.500   3.73486152e+03
  1523.000   3.75161469e+03
  1523.500   3.76720355e+03
  1524.000   3.78123010e+03
  1524.500   3.79330979e+03
  1525.000   3.80308008e+03
  1525.500   3.81020897e+03
  1526.000   3.81440331e+03
  1526.500   3.81541617e+03
  1527.000   3.81305321e+03
  1527.500   3.80717737e+03
  1528.000   3.79771183e+03
  1528.500   3.78464088e+03
  1529.000   3.76800873e+03
  1529.500   3.74791631e+03
  1530.000   3.72451613e+03
  1530.500   3.69800564e+03
  1531.000   3.66861936e+03
  1531.500   3.63662022e+03
  1532.000   3.60229055e+03
  1532.500   3.56592313e+03
  1533.000   3.52781270e+03
  1533.500   3.48824823e+03
  1534.000   3.44750621e+03
  1534.500   3.40584510e+03
  1535.000   3.36350115e+03
  1535.500   3.32068543e+03
  1536.000   3.27758221e+03
  1536.500   3.23434855e+03
  1537.000   3.19111495e+03
  1537.500   3.14798695e+03
  1538.000   3.10504753e+03
  1538.500   3.06236002e+03
  1539.000   3.01997145e+03
  1539.500   2.97791615e+03
  1540.000   2.93621924e+03
  1540.500   2.89490009e+03
  1541.000   2.85397539e+03
  1541.500   2.81346183e+03
  1542.000   2.77337828e+03
  1542.500   2.73374737e+03
  1543.000   2.69459649e+03
  1543.500   2.65595826e+03
  1544.000   2.61787047e+03
  1544.500   2.58037557e+03
  1545.000   2.54351984e+03
  1545.500   2.50735233e+03
  1546.000   2.47192362e+03
  1546.500   2.43728458e+03
  1547.000   2.40348514e+03
  1547.500   2.37057315e+03
  1548.000   2.33859343e+03
  1548.500   2.30758693e+03
  1549.000   2.27759018e+03
  1549.500   2.24863482e+03
  1550.000   2.22074739e+03
  1550.500   2.19394928e+03
  1551.000   2.16825676e+03
  1551.500   2.14368124e+03
  1552.000   2.12022946e+03
  1552.500   2.09790393e+03
  1553.000   2.07670326e+03
  1553.500   2.05662260e+03
  1554.000   2.03765409e+03
  1554.500   2.01978726e+03
  1555.000   2.00300944e+03
  1555.500   1.98730618e+03
  1556.000   1.97266157e+03
  1556.500   1.95905863e+03
  1557.000   1.94647957e+03
  1557.500   1.93490608e+03
  1558.000   1.92431957e+03
  1558.500   1.91470139e+03
  1559.000   1.90603300e+03
  1559.500   1.89829615e+03
  1560.000   1.89147300e+03
  1560.500   1.88554622e+03
  1561.000   1.88049914e+03
  1561.500   1.87631577e+03
  1562.000   1.87298090e+03
  1562.500   1.87048012e+03
  1563.000   1.86879990e+03
  1563.500   1.86792761e+03
  1564.000   1.86785152e+03
  1564.500   1.86856084e+03
  1565.000   1.87004574e+03
  1565.500   1.87229731e+03
  1566.000   1.87530764e+03
  1566.500   1.87906974e+03
  1567.000   1.88357761e+03
  1567.500   1.88882618e+03
  1568.000   1.89481135e+03
  1568.500   1.90152995e+03
  1569.000   1.90897979e+03
  1569.500   1.91715958e+03
  1570.000   1.92606899e+03
  1570.500   1.93570861e+03
  1571.000   1.94607999e+03
  1571.500   1.95718558e+03
  1572.000   1.96902879e+03
  1572.500   1.98161395e+03
  1573.000   1.99494633e+03
  1573.500   2.00903214e+03
  1574.000   2.02387856e+03
  1574.500   2.03949371e+03
  1575.000   2.05588668e+03
  1575.500   2.07306756e+03
  1576.000   2.09104740e+03
  1576.500   2.10983829e+03
  1577.000   2.12945336e+03
  1577.500   2.14990676e+03
  1578.000   2.17121372e+03
  1578.500   2.19339059e+03
  1579.000   2.21645483e+03
  1579.500   2.24042506e+03
  1580.000   2.26532108e+03
  1580.500   2.29116393e+03
  1581.000   2.31797588e+03
  1581.500   2.34578054e+03
  1582.000   2.37460283e+03
  1582.500   2.40446909e+03
  1583.000   2.43540707e+03
  1583.500   2.46744602e+03
  1584.000   2.50061673e+03
  1584.500   2.53495161e+03
  1585.000   2.57048471e+03
  1585.500   2.60725181e+03
  1586.000   2.64529050e+03
  1586.500   2.68464020e+03
  1587.000   2.72534228e+03
  1587.500   2.76744014e+03
  1588.000   2.81097923e+03
  1588.500   2.85600719e+03
  1589.000   2.90257390e+03
  1589.500   2.95073159e+03
  1590.000   3.00053490e+03
  1590.500   3.05204098e+03
  1591.000   3.10530956e+03
  1591.500   3.16040309e+03
  1592.000   3.21738676e+03
  1592.500   3.27632862e+03
  1593.000   3.33729966e+03
  1593.500   3.40037387e+03
  1594.000   3.46562831e+03
  1594.500   3.53314321e+03
  1595.000   3.60300195e+03
  1595.500   3.67529115e+03
  1596.000   3.75010068e+03
  1596.500   3.82752364e+03
  1597.000   3.90765635e+03
  1597.500   3.99059833e+03
  1598.000   4.07645217e+03
  1598.500   4.16532345e+03
  1599.000   4.25732057e+03
  1599.500   4.35255458e+03
  1600.000   4.45113890e+03
  1600.500   4.55318908e+03
  1601.000   4.65882238e+03
  1601.500   4.76815745e+03
  1602.000   4.88131381e+03
  1602.500   4.99841138e+03
  1603.000   5.11956991e+03
  1603.500   5.24490841e+03
  1604.000   5.37454455e+03
  1604.500   5.50859403e+03
  1605.000   5.64717001e+03
  1605.500   5.79038262e+03
  1606.000   5.93833850e+03
  1606.500   6.09114057e+03
  1607.000   6.24888798e+03
  1607.500   6.41167628e+03
  1608.000   6.57959800e+03
  1608.500   6.75274356e+03
  1609.000   6.93120267e+03
  1609.500   7.11506617e+03
  1610.000   7.30442845e+03
  1610.500   7.49939035e+03
  1611.000   7.70006257e+03
  1611.500   7.90656947e+03
  1612.000   8.11905322e+03
  1612.500   8.33767811e+03
  1613.000   8.56263479e+03
  1613.500   8.79414430e+03
  1614.000   9.03246163e+03
  1614.500   9.27787851e+03
  1615.000   9.53072524e+03
  1615.500   9.79137142e+03
  1616.000   1.00602253e+04
  1616.500   1.03377315e+04
  1617.000   1.06243678e+04
  1617.500   1.09206397e+04
  1618.000   1.12270739e+04
  1618.500   1.15442107e+04
  1619.000   1.18725943e+04
  1619.500   1.22127629e+04
  1620.000   1.25652371e+04
  1620.500   1.29305075e+04
  1621.000   1.33090213e+04
  1621.500   1.37011684e+04
  1622.000   1.41072656e+04
  1622.500   1.45275408e+04
  1623.000   1.49621156e+04
  1623.500   1.54109872e+04
  1624.000   1.58740085e+04
  1624.500   1.63508682e+04
  1625.000   1.68410688e+04
  1625.500   1.73439051e+04
  1626.000   1.78584411e+04
  1626.500   1.83834881e+04
  1627.000   1.89175827e+04
  1627.500   1.94589671e+04
  1628.000   2.00055717e+04
  1628.500   2.05550021e+04
  1629.000   2.11045311e+04
  1629.500   2.16510977e+04
  1630.000   2.21913146e+04
  1630.500   2.27214866e+04
  1631.000   2.32376394e+04
  1631.500   2.37355617e+04
  1632.000   2.42108614e+04
  1632.500   2.46590337e+04
  1633.000   2.50755433e+04
  1633.500   2.54559173e+04
  1634.000   2.57958465e+04
  1634.500   2.60912922e+04
  1635.000   2.63385935e+04
  1635.500   2.65345708e+04
  1636.000   2.66766203e+04
  1636.500   2.67627940e+04
  1637.000   2.67918613e+04
  1637.500   2.67633483e+04
  1638.000   2.66775526e+04
  1638.500   2.65355324e+04
  1639.000   2.63390708e+04
  1639.500   2.60906181e+04
  1640.000   2.57932140e+04
  1640.500   2.54503958e+04
  1641.000   2.50660965e+04
  1641.500   2.46445384e+04
  1642.000   2.41901267e+04
  1642.500   2.37073479e+04
  1643.000   2.32006764e+04
  1643.500   2.26744918e+04
  1644.000   2.21330089e+04
  1644.500   2.15802207e+04
  1645.000   2.10198556e+04
  1645.500   2.04553463e+04
  1646.000   1.98898116e+04
  1646.500   1.93260476e+04
  1647.000   1.87665284e+04
  1647.500   1.82134135e+04
  1648.000   1.76685608e+04
  1648.500   1.71335443e+04
  1649.000   1.66096738e+04
  1649.500   1.60980170e+04
  1650.000   1.55994221e+04
  1650.500   1.51145407e+04
  1651.000   1.46438495e+04
  1651.500   1.41876722e+04
  1652.000   1.37461990e+04
  1652.500   1.33195052e+04
  1653.000   1.29075684e+04
  1653.500   1.25102839e+04
  1654.000   1.21274783e+04
  1654.500   1.17589218e+04
  1655.000   1.14043393e+04
  1655.500   1.10634198e+04
  1656.000   1.07358246e+04
  1656.500   1.04211946e+04
  1657.000   1.01191562e+04
  1657.500   9.82932662e+03
  1658.000   9.55131816e+03
  1658.500   9.28474206e+03
  1659.000   9.02921127e+03
  1659.500   8.78434304e+03
  1660.000   8.54976076e+03
  1660.500   8.32509556e+03
  1661.000   8.10998737e+03
  1661.500   7.90408577e+03
  1662.000   7.70705049e+03
  1662.500   7.51855167e+03
  1663.000   7.33826988e+03
  1663.500   7.16589596e+03
  1664.000   7.00113069e+03
  1664.500   6.84368426e+03
  1665.000   6.69327563e+03
  1665.500   6.54963173e+03
  1666.000   6.41248659e+03
  1666.500   6.28158027e+03
  1667.000   6.15665779e+03
  1667.500   6.03746794e+03
  1668.000   5.92376200e+03
  1668.500   5.81529246e+03
  1669.000   5.71181166e+03
  1669.500   5.61307055e+03
  1670.000   5.51881733e+03
  1670.500   5.42879638e+03
  1671.000   5.34274718e+03
  1671.500   5.26040349e+03
  1672.000   5.18149284e+03
  1672.500   5.10573625e+03
  1673.000   5.03284850e+03
  1673.500   4.96253871e+03
  1674.000   4.89451157e+03
  1674.500   4.82846906e+03
  1675.000   4.76411274e+03
  1675.500   4.70114668e+03
  1676.000   4.63928076e+03
  1676.500   4.57823451e+03
  1677.000   4.51774122e+03
  1677.500   4.45755212e+03
  1678.000   4.39744055e+03
  1678.500   4.33720588e+03
  1679.000   4.27667687e+03
  1679.500   4.21571441e+03
  1680.000   4.15421341e+03
  1680.500   4.09210366e+03
  1681.000   4.02934972e+03
  1681.500   3.96594975e+03
  1682.000   3.90193336e+03
  1682.500   3.83735859e+03
  1683.000   3.77230826e+03
  1683.500   3.70688576e+03
  1684.000   3.64121062e+03
  1684.500   3.57541395e+03
  1685.000   3.50963406e+03
  1685.500   3.44401232e+03
  1686.000   3.37868946e+03
  1686.500   3.31380231e+03
  1687.000   3.24948116e+03
  1687.500   3.18584766e+03
  1688.000   3.12301321e+03
  1688.500   3.06107794e+03
  1689.000   3.00013010e+03
  1689.500   2.94024589e+03
  1690.000   2.88148953e+03
  1690.500   2.82391372e+03
  1691.000   2.76756019e+03
  1691.500   2.71246043e+03
  1692.000   2.65863656e+03
  1692.500   2.60610217e+03
  1693.000   2.55486322e+03
  1693.500   2.50491897e+03
  1694.000   2.45626278e+03
  1694.500   2.40888297e+03
  1695.000   2.36276353e+03
  1695.500   2.31788487e+03
  1696.000   2.27422441e+03
  1696.500   2.23175717e+03
  1697.000   2.19045629e+03
  1697.500   2.15029342e+03
  1698.000   2.11123919e+03
  1698.500   2.07326348e+03
  1699.000   2.03633576e+03
  1699.500   2.00042531e+03
  1700.000   1.96550144e+03
  1700.500   1.93153367e+03
  1701.000   1.89849185e+03
  1701.500   1.86634633e+03
  1702.000   1.83506801e+03
  1702.500   1.80462841e+03
  1703.000   1.77499980e+03
  1703.500   1.74615515e+03
  1704.000   1.71806821e+03
  1704.500   1.69071356e+03
  1705.000   1.66406654e+03
  1705.500   1.63810333e+03
  1706.000   1.61280091e+03
  1706.500   1.58813708e+03
  1707.000   1.56409041e+03
  1707.500   1.54064024e+03
  1708.000   1.51776671e+03
  1708.500   1.49545065e+03
  1709.000   1.47367365e+03
  1709.500   1.45241798e+03
  1710.000   1.43166659e+03
  1710.500   1.41140308e+03
  1711.000   1.39161169e+03
  1711.500   1.37227726e+03
  1712.000   1.35338522e+03
  1712.500   1.33492154e+03
  1713.000   1.31687277e+03
  1713.500   1.29922594e+03
  1714.000   1.28196861e+03
  1714.500   1.26508879e+03
  1715.000   1.24857496e+03
  1715.500   1.23241603e+03
  1716.000   1.21660136e+03
  1716.500   1.20112067e+03
  1717.000   1.18596409e+03
  1717.500   1.17112211e+03
  1718.000   1.15658558e+03
  1718.500   1.14234568e+03
  1719.000   1.12839392e+03
  1719.500   1.11472211e+03
  1720.000   1.10132238e+03
  1720.500   1.08818712e+03
  1721.000   1.07530899e+03
  1721.500   1.06268094e+03
  1722.000   1.05029613e+03
  1722.500   1.03814800e+03
  1723.000   1.02623018e+03
  1723.500   1.01453655e+03
  1724.000   1.00306119e+03
  1724.500   9.91798371e+02
  1725.000   9.80742573e+02
  1725.500   9.69888454e+02
  1726.000   9.59230853e+02
  1726.500   9.48764779e+02
  1727.000   9.38485404e+02
  1727.500   9.28388059e+02
  1728.000   9.18468225e+02
  1728.500   9.08721530e+02
  1729.000   8.99143740e+02
  1729.500   8.89730755e+02
  1730.000   8.80478606e+02
  1730.500   8.71383445e+02
  1731.000   8.62441546e+02
  1731.500   8.53649297e+02
  1732.000   8.45003195e+02
  1732.500   8.36499846e+02
  1733.000   8.28135954e+02
  1733.500   8.19908327e+02
  1734.000   8.11813862e+02
  1734.500   8.03849553e+02
  1735.000   7.96012478e+02
  1735.500   7.88299803e+02
  1736.000   7.80708772e+02
  1736.500   7.73236712e+02
  1737.000   7.65881025e+02
  1737.500   7.58639184e+02
  1738.000   7.51508737e+02
  1738.500   7.44487297e+02
  1739.000   7.37572545e+02
  1739.500   7.30762226e+02
  1740.000   7.24054146e+02
  1740.500   7.17446170e+02
  1741.000   7.10936222e+02
  1741.500   7.04522281e+02
  1742.000   6.98202380e+02
  1742.500   6.91974604e+02
  1743.000   6.85837088e+02
  1743.500   6.79788017e+02
  1744.000   6.73825622e+02
  1744.500   6.67948179e+02
  1745.000   6.62154011e+02
  1745.500   6.56441480e+02
  1746.000   6.50808993e+02
  1746.500   6.45254996e+02
  1747.000   6.39777972e+02
  1747.500   6.34376444e+02
  1748.000   6.29048971e+02
  1748.500   6.23794147e+02
  1749.000   6.18610601e+02
  1749.500   6.13496995e+02
  1750.000   6.08452023e+02
  1750.500   6.03474411e+02
  1751.000   5.98562915e+02
  1751.500   5.93716321e+02
  1752.000   5.88933442e+02
  1752.500   5.84213122e+02
  1753.000   5.79554229e+02
  1753.500   5.74955660e+02
  1754.000   5.70416335e+02
  1754.500   5.65935199e+02
  1755.000   5.61511224e+02
  1755.500   5.57143402e+02
  1756.000   5.52830749e+02
  1756.500   5.48572304e+02
  1757.000   5.44367126e+02
  1757.500   5.40214296e+02
  1758.000   5.36112915e+02
  1758.500   5.32062104e+02
  1759.000   5.28061003e+02
  1759.500   5.24108770e+02
  1760.000   5.20204584e+02
  1760.500   5.16347638e+02
  1761.000   5.12537144e+02
  1761.500   5.08772332e+02
  1762.000   5.05052447e+02
  1762.500   5.01376751e+02
  1763.000   4.97744519e+02
  1763.500   4.94155045e+02
  1764.000   4.90607634e+02
  1764.500   4.87101608e+02
  1765.000   4.83636301e+02
  1765.500   4.80211064e+02
  1766.000   4.76825258e+02
  1766.500   4.73478257e+02
  1767.000   4.70169450e+02
  1767.500   4.66898237e+02
  1768.000   4.63664030e+02
  1768.500   4.60466253e+02
  1769.000   4.57304340e+02
  1769.500   4.54177740e+02
  1770.000   4.51085908e+02
  1770.500   4.48028314e+02
  1771.000   4.45004435e+02
  1771.500   4.42013760e+02
  1772.000   4.39055788e+02
  1772.500   4.36130026e+02
  1773.000   4.33235994e+02
  1773.500   4.30373216e+02
  1774.000   4.27541229e+02
  1774.500   4.24739578e+02
  1775.000   4.21967816e+02
  1775.500   4.19225504e+02
  1776.000   4.16512213e+02
  1776.500   4.13827520e+02
  1777.000   4.11171010e+02
  1777.500   4.08542277e+02
  1778.000   4.05940922e+02
  1778.500   4.03366553e+02
  1779.000   4.00818785e+02
  1779.500   3.98297240e+02
  1780.000   3.95801547e+02
  1780.500   3.93331342e+02
  1781.000   3.90886268e+02
  1781.500   3.88465973e+02
  1782.000   3.86070111e+02
  1782.500   3.83698344e+02
  1783.000   3.81350340e+02
  1783.500   3.79025770e+02
  1784.000   3.76724314e+02
  1784.500   3.74445655e+02
  1785.000   3.72189484e+02
  1785.500   3.69955495e+02
  1786.000   3.67743389e+02
  1786.500   3.65552871e+02
  1787.000   3.63383652e+02
  1787.500   3.61235448e+02
  1788.000   3.59107978e+02
  1788.500   3.57000968e+02
  1789.000   3.54914148e+02
  1789.500   3.52847251e+02
  1790.000   3.50800016e+02
  1790.500   3.48772187e+02
  1791.000   3.46763510e+02
  1791.500   3.44773738e+02
  1792.000   3.42802626e+02
  1792.500   3.40849932e+02
  1793.000   3.38915422e+02
  1793.500   3.36998862e+02
  1794.000   3.35100024e+02
  1794.500   3.33218682e+02
  1795.000   3.31354615e+02
  1795.500   3.29507605e+02
  1796.000   3.27677438e+02
  1796.500   3.25863903e+02
  1797.000   3.24066791e+02
  1797.500   3.22285899e+02
  1798.000   3.20521026e+02
  1798.500   3.18771974e+02
  1799.000   3.17038547e+02
  1799.500   3.15320555e+02
  1800.000   3.13617807e+02
  1800.500   3.11930119e+02
  1801.000   3.10257308e+02
  1801.500   3.08599193e+02
  1802.000   3.06955597e+02
  1802.500   3.05326345e+02
  1803.000   3.03711265e+02
  1803.500   3.02110188e+02
  1804.000   3.00522947e+02
  1804.500   2.98949378e+02
  1805.000   2.97389319e+02
  1805.500   2.95842611e+02
  1806.000   2.94309096e+02
  1806.500   2.92788621e+02
  1807.000   2.91281031e+02
  1807.500   2.89786179e+02
  1808.000   2.88303915e+02
  1808.500   2.86834095e+02
  1809.000   2.85376574e+02
  1809.500   2.83931211e+02
  1810.000   2.82497866e+02
  1810.500   2.81076404e+02
  1811.000   2.79666687e+02
  1811.500   2.78268582e+02
  1812.000   2.76881959e+02
  1812.500   2.75506688e+02
  1813.000   2.74142640e+02
  1813.500   2.72789691e+02
  1814.000   2.71447715e+02
  1814.500   2.70116591e+02
  1815.000   2.68796198e+02
  1815.500   2.67486417e+02
  1816.000   2.66187130e+02
  1816.500   2.64898223e+02
  1817.000   2.63619581e+02
  1817.500   2.62351092e+02
  1818.000   2.61092644e+02
  1818.500   2.59844130e+02
  1819.000   2.58605440e+02
  1819.500   2.57376469e+02
  1820.000   2.56157112e+02
  1820.500   2.54947265e+02
  1821.000   2.53746827e+02
  1821.500   2.52555696e+02
  1822.000   2.51373774e+02
  1822.500   2.50200963e+02
  1823.000   2.49037166e+02
  1823.500   2.47882287e+02
  1824.000   2.46736234e+02
  1824.500   2.45598912e+02
  1825.000   2.44470231e+02
  1825.500   2.43350101e+02
  1826.000   2.42238432e+02
  1826.500   2.41135136e+02
  1827.000   2.40040126e+02
  1827.500   2.38953318e+02
  1828.000   2.37874626e+02
  1828.500   2.36803967e+02
  1829.000   2.35741259e+02
  1829.500   2.34686421e+02
  1830.000   2.33639372e+02
  1830.500   2.32600033e+02
  1831.000   2.31568326e+02
  1831.500   2.30544175e+02
  1832.000   2.29527502e+02
  1832.500   2.28518233e+02
  1833.000   2.27516294e+02
  1833.500   2.26521611e+02
  1834.000   2.25534112e+02
  1834.500   2.24553726e+02
  1835.000   2.23580382e+02
  1835.500   2.22614011e+02
  1836.000   2.21654543e+02
  1836.500   2.20701911e+02
  1837.000   2.19756048e+02
  1837.500   2.18816888e+02
  1838.000   2.17884365e+02
  1838.500   2.16958415e+02
  1839.000   2.16038974e+02
  1839.500   2.15125978e+02
  1840.000   2.14219367e+02
  1840.500   2.13319078e+02
  1841.000   2.12425050e+02
  1841.500   2.11537224e+02
  1842.000   2.10655540e+02
  1842.500   2.09779941e+02
  1843.000   2.08910367e+02
  1843.500   2.08046763e+02
  1844.000   2.07189071e+02
  1844.500   2.06337236e+02
  1845.000   2.05491202e+02
  1845.500   2.04650916e+02
  1846.000   2.03816324e+02
  1846.500   2.02987372e+02
  1847.000   2.02164008e+02
  1847.500   2.01346180e+02
  1848.000   2.00533836e+02
  1848.500   1.99726927e+02
  1849.000   1.98925402e+02
  1849.500   1.98129211e+02
  1850.000   1.97338306e+02
  1850.500   1.96552639e+02
  1851.000   1.95772161e+02
  1851.500   1.94996825e+02
  1852.000   1.94226584e+02
  1852.500   1.93461394e+02
  1853.000   1.92701207e+02
  1853.500   1.91945978e+02
  1854.000   1.91195664e+02
  1854.500   1.90450221e+02
  1855.000   1.89709603e+02
  1855.500   1.88973769e+02
  1856.000   1.88242676e+02
  1856.500   1.87516282e+02
  1857.000   1.86794545e+02
  1857.500   1.86077424e+02
  1858.000   1.85364879e+02
  1858.500   1.84656868e+02
  1859.000   1.83953353e+02
  1859.500   1.83254293e+02
  1860.000   1.82559651e+02
  1860.500   1.81869387e+02
  1861.000   1.81183464e+02
  1861.500   1.80501844e+02
  1862.000   1.79824489e+02
  1862.500   1.79151363e+02
  1863.000   1.78482430e+02
  1863.500   1.77817653e+02
  1864.000   1.77156997e+02
  1864.500   1.76500426e+02
  1865.000   1.75847907e+02
  1865.500   1.75199403e+02
  1866.000   1.74554882e+02
  1866.500   1.73914309e+02
  1867.000   1.73277651e+02
  1867.500   1.72644875e+02
  1868.000   1.72015949e+02
  1868.500   1.71390840e+02
  1869.000   1.70769516e+02
  1869.500   1.70151945e+02
  1870.000   1.69538097e+02
  1870.500   1.68927940e+02
  1871.000   1.68321444e+02
  1871.500   1.67718578e+02
  1872.000   1.67119313e+02
  1872.500   1.66523618e+02
  1873.000   1.65931464e+02
  1873.500   1.65342823e+02
  1874.000   1.64757666e+02
  1874.500   1.64175963e+02
  1875.000   1.63597688e+02
  1875.500   1.63022811e+02
  1876.000   1.62451306e+02
  1876.500   1.61883146e+02
  1877.000   1.61318302e+02
  1877.500   1.60756749e+02
  1878.000   1.60198460e+02
  1878.500   1.59643409e+02
  1879.000   1.59091569e+02
  1879.500   1.58542916e+02
  1880.000   1.57997424e+02
  1880.500   1.57455067e+02
  1881.000   1.56915821e+02
  1881.500   1.56379661e+02
  1882.000   1.55846563e+02
  1882.500   1.55316503e+02
  1883.000   1.54789456e+02
  1883.500   1.54265400e+02
  1884.000   1.53744310e+02
  1884.500   1.53226163e+02
  1885.000   1.52710937e+02
  1885.500   1.52198609e+02
  1886.000   1.51689156e+02
  1886.500   1.51182555e+02
  1887.000   1.50678786e+02
  1887.500   1.50177826e+02
  1888.000   1.49679653e+02
  1888.500   1.49184246e+02
  1889.000   1.48691583e+02
  1889.500   1.48201645e+02
  1890.000   1.47714409e+02
  1890.500   1.47229856e+02
  1891.000   1.46747964e+02
  1891.500   1.46268714e+02
  1892.000   1.45792086e+02
  1892.500   1.45318060e+02
  1893.000   1.44846616e+02
  1893.500   1.44377735e+02
  1894.000   1.43911397e+02
  1894.500   1.43447584e+02
  1895.000   1.42986276e+02
  1895.500   1.42527455e+02
  1896.000   1.42071103e+02
  1896.500   1.41617201e+02
  1897.000   1.41165730e+02
  1897.500   1.40716673e+02
  1898.000   1.40270012e+02
  1898.500   1.39825729e+02
  1899.000   1.39383808e+02
  1899.500   1.38944229e+02
  1900.000   1.38506977e+02
  1900.500   1.38072034e+02
  1901.000   1.37639383e+02
  1901.500   1.37209008e+02
  1902.000   1.36780893e+02
  1902.500   1.36355019e+02
  1903.000   1.35931373e+02
  1903.500   1.35509936e+02
  1904.000   1.35090694e+02
  1904.500   1.34673631e+02
  1905.000   1.34258730e+02
  1905.500   1.33845977e+02
  1906.000   1.33435357e+02
  1906.500   1.33026852e+02
  1907.000   1.32620450e+02
  1907.500   1.32216134e+02
  1908.000   1.31813891e+02
  1908.500   1.31413704e+02
  1909.000   1.31015560e+02
  1909.500   1.30619445e+02
  1910.000   1.30225343e+02
  1910.500   1.29833241e+02
  1911.000   1.29443125e+02
  1911.500   1.29054981e+02
  1912.000   1.28668795e+02
  1912.500   1.28284554e+02
  1913.000   1.27902243e+02
  1913.500   1.27521849e+02
  1914.000   1.27143360e+02
  1914.500   1.26766761e+02
  1915.000   1.26392041e+02
  1915.500   1.26019185e+02
  1916.000   1.25648181e+02
  1916.500   1.25279017e+02
  1917.000   1.24911679e+02
  1917.500   1.24546155e+02
  1918.000   1.24182433e+02
  1918.500   1.23820501e+02
  1919.000   1.23460346e+02
  1919.500   1.23101956e+02
  1920.000   1.22745319e+02
  1920.500   1.22390424e+02
  1921.000   1.22037258e+02
  1921.500   1.21685810e+02
  1922.000   1.21336068e+02
  1922.500   1.20988021e+02
  1923.000   1.20641658e+02
  1923.500   1.20296967e+02
  1924.000   1.19953937e+02
  1924.500   1.19612556e+02
  1925.000   1.19272815e+02
  1925.500   1.18934702e+02
  1926.000   1.18598206e+02
  1926.500   1.18263316e+02
  1927.000   1.17930023e+02
  1927.500   1.17598314e+02
  1928.000   1.17268181e+02
  1928.500   1.16939612e+02
  1929.000   1.16612598e+02
  1929.500   1.16287127e+02
  1930.000   1.15963191e+02
  1930.500   1.15640779e+02
  1931.000   1.15319880e+02
  1931.500   1.15000486e+02
  1932.000   1.14682586e+02
  1932.500   1.14366171e+02
  1933.000   1.14051231e+02
  1933.500   1.13737757e+02
  1934.000   1.13425739e+02
  1934.500   1.13115167e+02
  1935.000   1.12806033e+02
  1935.500   1.12498328e+02
  1936.000   1.12192041e+02
  1936.500   1.11887165e+02
  1937.000   1.11583689e+02
  1937.500   1.11281606e+02
  1938.000   1.10980906e+02
  1938.500   1.10681580e+02
  1939.000   1.10383620e+02
  1939.500   1.10087017e+02
  1940.000   1.09791763e+02
  1940.500   1.09497849e+02
  1941.000   1.09205267e+02
  1941.500   1.08914007e+02
  1942.000   1.08624063e+02
  1942.500   1.08335426e+02
  1943.000   1.08048087e+02
  1943.500   1.07762038e+02
  1944.000   1.07477272e+02
  1944.500   1.07193781e+02
  1945.000   1.06911556e+02
  1945.500   1.06630589e+02
  1946.000   1.06350874e+02
  1946.500   1.06072402e+02
  1947.000   1.05795165e+02
  1947.500   1.05519156e+02
  1948.000   1.05244368e+02
  1948.500   1.04970792e+02
  1949.000   1.04698422e+02
  1949.500   1.04427251e+02
  1950.000   1.04157269e+02
  1950.500   1.03888472e+02
  1951.000   1.03620851e+02
  1951.500   1.03354399e+02
  1952.000   1.03089109e+02
  1952.500   1.02824974e+02
  1953.000   1.02561987e+02
  1953.500   1.02300142e+02
  1954.000   1.02039431e+02
  1954.500   1.01779847e+02
  1955.000   1.01521384e+02
  1955.500   1.01264035e+02
  1956.000   1.01007794e+02
  1956.500   1.00752653e+02
  1957.000   1.00498606e+02
  1957.500   1.00245647e+02
  1958.000   9.99937695e+01
  1958.500   9.97429665e+01
  1959.000   9.94932319e+01
  1959.500   9.92445595e+01
  1960.000   9.89969428e+01
  1960.500   9.87503759e+01
  1961.000   9.85048523e+01
  1961.500   9.82603661e+01
  1962.000   9.80169111e+01
  1962.500   9.77744812e+01
  1963.000   9.75330706e+01
  1963.500   9.72926733e+01
  1964.000   9.70532832e+01
  1964.500   9.68148947e+01
  1965.000   9.65775019e+01
  1965.500   9.63410989e+01
  1966.000   9.61056801e+01
  1966.500   9.58712398e+01
  1967.000   9.56377723e+01
  1967.500   9.54052720e+01
  1968.000   9.51737334e+01
  1968.500   9.49431509e+01
  1969.000   9.47135191e+01
  1969.500   9.44848325e+01
  1970.000   9.42570857e+01
  1970.500   9.40302734e+01
  1971.000   9.38043902e+01
  1971.500   9.35794308e+01
  1972.000   9.33553900e+01
  1972.500   9.31322626e+01
  1973.000   9.29100434e+01
  1973.500   9.26887272e+01
  1974.000   9.24683091e+01
  1974.500   9.22487838e+01
  1975.000   9.20301464e+01
  1975.500   9.18123920e+01
  1976.000   9.15955155e+01
  1976.500   9.13795120e+01
  1977.000   9.11643766e+01
  1977.500   9.09501046e+01
  1978.000   9.07366911e+01
  1978.500   9.05241312e+01
  1979.000   9.03124203e+01
  1979.500   9.01015537e+01
  1980.000   8.98915267e+01
  1980.500   8.96823346e+01
  1981.000   8.94739728e+01
  1981.500   8.92664367e+01
  1982.000   8.90597219e+01
  1982.500   8.88538237e+01
  1983.000   8.86487377e+01
  1983.500   8.84444595e+01
  1984.000   8.82409845e+01
  1984.500   8.80383085e+01
  1985.000   8.78364271e+01
  1985.500   8.76353359e+01
  1986.000   8.74350307e+01
  1986.500   8.72355071e+01
  1987.000   8.70367610e+01
  1987.500   8.68387881e+01
  1988.000   8.66415842e+01
  1988.500   8.64451453e+01
  1989.000   8.62494671e+01
  1989.500   8.60545455e+01
  1990.000   8.58603766e+01
  1990.500   8.56669562e+01
  1991.000   8.54742804e+01
  1991.500   8.52823451e+01
  1992.000   8.50911465e+01
  1992.500   8.49006805e+01
  1993.000   8.47109433e+01
  1993.500   8.45219310e+01
  1994.000   8.43336398e+01
  1994.500   8.41460657e+01
  1995.000   8.39592051e+01
  1995.500   8.37730542e+01
  1996.000   8.35876091e+01
  1996.500   8.34028663e+01
  1997.000   8.32188219e+01
  1997.500   8.30354724e+01
  1998.000   8.28528140e+01
  1998.500   8.26708431e+01
  1999.000   8.24895562e+01
  1999.500   8.23089496e+01
  2000.000   8.21290199e+01
  2000.500   8.19497635e+01
  2001.000   8.17711768e+01
  2001.500   8.15932565e+01
  2002.000   8.14159990e+01
  2002.500   8.12394009e+01
  2003.000   8.10634588e+01
  2003.500   8.08881693e+01
  2004.000   8.07135291e+01
  2004.500   8.05395347e+01
  2005.000   8.03661830e+01
  2005.500   8.01934705e+01
  2006.000   8.00213940e+01
  2006.500   7.98499502e+01
  2007.000   7.96791360e+01
  2007.500   7.95089480e+01
  2008.000   7.93393831e+01
  2008.500   7.91704381e+01
  2009.000   7.90021099e+01
  2009.500   7.88343953e+01
  2010.000   7.86672913e+01
  2010.500   7.85007946e+01
  2011.000   7.83349023e+01
  2011.500   7.81696114e+01
  2012.000   7.80049186e+01
  2012.500   7.78408212e+01
  2013.000   7.76773160e+01
  2013.500   7.75144001e+01
  2014.000   7.73520705e+01
  2014.500   7.71903243e+01
  2015.000   7.70291586e+01
  2015.500   7.68685704e+01
  2016.000   7.67085570e+01
  2016.500   7.65491154e+01
  2017.000   7.63902427e+01
  2017.500   7.62319363e+01
  2018.000   7.60741932e+01
  2018.500   7.59170107e+01
  2019.000   7.57603859e+01
  2019.500   7.56043162e+01
  2020.000   7.54487988e+01
  2020.500   7.52938310e+01
  2021.000   7.51394100e+01
  2021.500   7.49855333e+01
  2022.000   7.48321980e+01
  2022.500   7.46794017e+01
  2023.000   7.45271415e+01
  2023.500   7.43754150e+01
  2024.000   7.42242195e+01
  2024.500   7.40735523e+01
  2025.000   7.39234111e+01
  2025.500   7.37737931e+01
  2026.000   7.36246959e+01
  2026.500   7.34761169e+01
  2027.000   7.33280537e+01
  2027.500   7.31805037e+01
  2028.000   7.30334644e+01
  2028.500   7.28869334e+01
  2029.000   7.27409083e+01
  2029.500   7.25953866e+01
  2030.000   7.24503658e+01
  2030.500   7.23058437e+01
  2031.000   7.21618178e+01
  2031.500   7.20182857e+01
  2032.000   7.18752451e+01
  2032.500   7.17326936e+01
  2033.000   7.15906290e+01
  2033.500   7.14490488e+01
  2034.000   7.13079508e+01
  2034.500   7.11673327e+01
  2035.000   7.10271923e+01
  2035.500   7.08875272e+01
  2036.000   7.07483352e+01
  2036.500   7.06096142e+01
  2037.000   7.04713618e+01
  2037.500   7.03335758e+01
  2038.000   7.01962542e+01
  2038.500   7.00593946e+01
  2039.000   6.99229950e+01
  2039.500   6.97870531e+01
  2040.000   6.96515669e+01
  2040.500   6.95165342e+01
  2041.000   6.93819529e+01
  2041.500   6.92478208e+01
  2042.000   6.91141360e+01
  2042.500   6.89808963e+01
  2043.000   6.88480997e+01
  2043.500   6.87157441e+01
  2044.000   6.85838274e+01
  2044.500   6.84523477e+01
  2045.000   6.83213029e+01
  2045.500   6.81906911e+01
  2046.000   6.80605101e+01
  2046.500   6.79307581e+01
  2047.000   6.78014331e+01
  2047.500   6.76725331e+01
  2048.000   6.75440562e+01
  2048.500   6.74160004e+01
  2049.000   6.72883638e+01
  2049.500   6.71611446e+01
  2050.000   6.70343407e+01
  2050.500   6.69079503e+01
  2051.000   6.67819716e+01
  2051.500   6.66564027e+01
  2052.000   6.65312416e+01
  2052.500   6.64064866e+01
  2053.000   6.62821359e+01
  2053.500   6.61581875e+01
  2054.000   6.60346397e+01
  2054.500   6.59114907e+01
  2055.000   6.57887387e+01
  2055.500   6.56663819e+01
  2056.000   6.55444185e+01
  2056.500   6.54228468e+01
  2057.000   6.53016650e+01
  2057.500   6.51808714e+01
  2058.000   6.50604642e+01
  2058.500   6.49404418e+01
  2059.000   6.48208023e+01
  2059.500   6.47015442e+01
  2060.000   6.45826656e+01
  2060.500   6.44641650e+01
  2061.000   6.43460406e+01
  2061.500   6.42282908e+01
  2062.000   6.41109139e+01
  2062.500   6.39939083e+01
  2063.000   6.38772723e+01
  2063.500   6.37610044e+01
  2064.000   6.36451028e+01
  2064.500   6.35295661e+01
  2065.000   6.34143925e+01
  2065.500   6.32995805e+01
  2066.000   6.31851286e+01
  2066.500   6.30710350e+01
  2067.000   6.29572984e+01
  2067.500   6.28439171e+01
  2068.000   6.27308895e+01
  2068.500   6.26182142e+01
  2069.000   6.25058895e+01
  2069.500   6.23939141e+01
  2070.000   6.22822863e+01
  2070.500   6.21710047e+01
  2071.000   6.20600677e+01
  2071.500   6.19494739e+01
  2072.000   6.18392218e+01
  2072.500   6.17293100e+01
  2073.000   6.16197369e+01
  2073.500   6.15105011e+01
  2074.000   6.14016011e+01
  2074.500   6.12930356e+01
  2075.000   6.11848031e+01
  2075.500   6.10769021e+01
  2076.000   6.09693313e+01
  2076.500   6.08620892e+01
  2077.000   6.07551744e+01
  2077.500   6.06485856e+01
  2078.000   6.05423214e+01
  2078.500   6.04363803e+01
  2079.000   6.03307610e+01
  2079.500   6.02254622e+01
  2080.000   6.01204825e+01
  2080.500   6.00158205e+01
  2081.000   5.99114749e+01
  2081.500   5.98074444e+01
  2082.000   5.97037276e+01
  2082.500   5.96003232e+01
  2083.000   5.94972300e+01
  2083.500   5.93944465e+01
  2084.000   5.92919716e+01
  2084.500   5.91898038e+01
  2085.000   5.90879420e+01
  2085.500   5.89863849e+01
  2086.000   5.88851311e+01
  2086.500   5.87841795e+01
  2087.000   5.86835287e+01
  2087.500   5.85831775e+01
  2088.000   5.84831247e+01
  2088.500   5.83833690e+01
  2089.000   5.82839092e+01
  2089.500   5.81847441e+01
  2090.000   5.80858724e+01
  2090.500   5.79872930e+01
  2091.000   5.78890046e+01
  2091.500   5.77910061e+01
  2092.000   5.76932962e+01
  2092.500   5.75958738e+01
  2093.000   5.74987376e+01
  2093.500   5.74018866e+01
  2094.000   5.73053195e+01
  2094.500   5.72090352e+01
  2095.000   5.71130326e+01
  2095.500   5.70173104e+01
  2096.000   5.69218675e+01
  2096.500   5.68267029e+01
  2097.000   5.67318153e+01
  2097.500   5.66372036e+01
  2098.000   5.65428668e+01
  2098.500   5.64488037e+01
  2099.000   5.63550132e+01
  2099.500   5.62614942e+01
  2100.000   5.61682456e+01
  2100.500   5.60752663e+01
  2101.000   5.59825552e+01
  2101.500   5.58901113e+01
  2102.000   5.57979335e+01
  2102.500   5.57060206e+01
  2103.000   5.56143718e+01
  2103.500   5.55229858e+01
  2104.000   5.54318616e+01
  2104.500   5.53409982e+01
  2105.000   5.52503946e+01
  2105.500   5.51600497e+01
  2106.000   5.50699624e+01
  2106.500   5.49801319e+01
  2107.000   5.48905569e+01
  2107.500   5.48012366e+01
  2108.000   5.47121699e+01
  2108.500   5.46233558e+01
  2109.000   5.45347933e+01
  2109.500   5.44464814e+01
  2110.000   5.43584192e+01
  2110.500   5.42706055e+01
  2111.000   5.41830396e+01
  2111.500   5.40957203e+01
  2112.000   5.40086468e+01
  2112.500   5.39218180e+01
  2113.000   5.38352330e+01
  2113.500   5.37488908e+01
  2114.000   5.36627905e+01
  2114.500   5.35769312e+01
  2115.000   5.34913118e+01
  2115.500   5.34059316e+01
  2116.000   5.33207894e+01
  2116.500   5.32358845e+01
  2117.000   5.31512159e+01
  2117.500   5.30667826e+01
  2118.000   5.29825838e+01
  2118.500   5.28986185e+01
  2119.000   5.28148859e+01
  2119.500   5.27313850e+01
  2120.000   5.26481150e+01
  2120.500   5.25650749e+01
  2121.000   5.24822639e+01
  2121.500   5.23996811e+01
  2122.000   5.23173256e+01
  2122.500   5.22351966e+01
  2123.000   5.21532931e+01
  2123.500   5.20716143e+01
  2124.000   5.19901594e+01
  2124.500   5.19089275e+01
  2125.000   5.18279177e+01
  2125.500   5.17471292e+01
  2126.000   5.16665612e+01
  2126.500   5.15862128e+01
  2127.000   5.15060832e+01
  2127.500   5.14261715e+01
  2128.000   5.13464769e+01
  2128.500   5.12669986e+01
  2129.000   5.11877358e+01
  2129.500   5.11086876e+01
  2130.000   5.10298534e+01
  2130.500   5.09512321e+01
  2131.000   5.08728231e+01
  2131.500   5.07946255e+01
  2132.000   5.07166386e+01
  2132.500   5.06388616e+01
  2133.000   5.05612936e+01
  2133.500   5.04839338e+01
  2134.000   5.04067816e+01
  2134.500   5.03298361e+01
  2135.000   5.02530966e+01
  2135.500   5.01765623e+01
  2136.000   5.01002323e+01
  2136.500   5.00241061e+01
  2137.000   4.99481827e+01
  2137.500   4.98724615e+01
  2138.000   4.97969416e+01
  2138.500   4.97216225e+01
  2139.000   4.96465032e+01
  2139.500   4.95715831e+01
  2140.000   4.94968614e+01
  2140.500   4.94223374e+01
  2141.000   4.93480104e+01
  2141.500   4.92738796e+01
  2142.000   4.91999443e+01
  2142.500   4.91262038e+01
  2143.000   4.90526574e+01
  2143.500   4.89793044e+01
  2144.000   4.89061440e+01
  2144.500   4.88331756e+01
  2145.000   4.87603984e+01
  2145.500   4.86878118e+01
  2146.000   4.86154150e+01
  2146.500   4.85432074e+01
  2147.000   4.84711883e+01
  2147.500   4.83993570e+01
  2148.000   4.83277127e+01
  2148.500   4.82562549e+01
  2149.000   4.81849829e+01
  2149.500   4.81138959e+01
  2150.000   4.80429933e+01
  2150.500   4.79722744e+01
  2151.000   4.79017387e+01
  2151.500   4.78313853e+01
  2152.000   4.77612137e+01
  2152.500   4.76912232e+01
  2153.000   4.76214131e+01
  2153.500   4.75517828e+01
  2154.000   4.74823317e+01
  2154.500   4.74130591e+01
  2155.000   4.73439644e+01
  2155.500   4.72750469e+01
  2156.000   4.72063060e+01
  2156.500   4.71377411e+01
  2157.000   4.70693515e+01
  2157.500   4.70011366e+01
  2158.000   4.69330958e+01
  2158.500   4.68652285e+01
  2159.000   4.67975340e+01
  2159.500   4.67300118e+01
  2160.000   4.66626612e+01
  2160.500   4.65954816e+01
  2161.000   4.65284725e+01
  2161.500   4.64616332e+01
  2162.000   4.63949630e+01
  2162.500   4.63284615e+01
  2163.000   4.62621280e+01
  2163.500   4.61959620e+01
  2164.000   4.61299628e+01
  2164.500   4.60641298e+01
  2165.000   4.59984625e+01
  2165.500   4.59329603e+01
  2166.000   4.58676226e+01
  2166.500   4.58024488e+01
  2167.000   4.57374384e+01
  2167.500   4.56725908e+01
  2168.000   4.56079054e+01
  2168.500   4.55433817e+01
  2169.000   4.54790191e+01
  2169.500   4.54148170e+01
  2170.000   4.53507748e+01
  2170.500   4.52868921e+01
  2171.000   4.52231682e+01
  2171.500   4.51596027e+01
  2172.000   4.50961949e+01
  2172.500   4.50329444e+01
  2173.000   4.49698505e+01
  2173.500   4.49069127e+01
  2174.000   4.48441306e+01
  2174.500   4.47815035e+01
  2175.000   4.47190309e+01
  2175.500   4.46567124e+01
  2176.000   4.45945473e+01
  2176.500   4.45325351e+01
  2177.000   4.44706754e+01
  2177.500   4.44089675e+01
  2178.000   4.43474110e+01
  2178.500   4.42860054e+01
  2179.000   4.42247501e+01
  2179.500   4.41636446e+01
  2180.000   4.41026885e+01
  2180.500   4.40418811e+01
  2181.000   4.39812221e+01
  2181.500   4.39207109e+01
  2182.000   4.38603469e+01
  2182.500   4.38001298e+01
  2183.000   4.37400589e+01
  2183.500   4.36801339e+01
  2184.000   4.36203541e+01
  2184.500   4.35607192e+01
  2185.000   4.35012286e+01
  2185.500   4.34418819e+01
  2186.000   4.33826785e+01
  2186.500   4.33236180e+01
  2187.000   4.32646999e+01
  2187.500   4.32059237e+01
  2188.000   4.31472889e+01
  2188.500   4.30887951e+01
  2189.000   4.30304418e+01
  2189.500   4.29722286e+01
  2190.000   4.29141548e+01
  2190.500   4.28562202e+01
  2191.000   4.27984242e+01
  2191.500   4.27407664e+01
  2192.000   4.26832463e+01
  2192.500   4.26258634e+01
  2193.000   4.25686173e+01
  2193.500   4.25115075e+01
  2194.000   4.24545337e+01
  2194.500   4.23976952e+01
  2195.000   4.23409918e+01
  2195.500   4.22844229e+01
  2196.000   4.22279880e+01
  2196.500   4.21716869e+01
  2197.000   4.21155189e+01
  2197.500   4.20594837e+01
  2198.000   4.20035809e+01
  2198.500   4.19478099e+01
  2199.000   4.18921704e+01
  2199.500   4.18366620e+01
  2200.000   4.17812842e+01
  2200.500   4.17260365e+01
  2201.000   4.16709186e+01
  2201.500   4.16159300e+01
  2202.000   4.15610703e+01
  2202.500   4.15063391e+01
  2203.000   4.14517359e+01
  2203.500   4.13972604e+01
  2204.000   4.13429122e+01
  2204.500   4.12886907e+01
  2205.000   4.12345957e+01
  2205.500   4.11806267e+01
  2206.000   4.11267832e+01
  2206.500   4.10730649e+01
  2207.000   4.10194714e+01
  2207.500   4.09660023e+01
  2208.000   4.09126572e+01
  2208.500   4.08594356e+01
  2209.000   4.08063372e+01
  2209.500   4.07533615e+01
  2210.000   4.07005083e+01
  2210.500   4.06477770e+01
  2211.000   4.05951674e+01
  2211.500   4.05426789e+01
  2212.000   4.04903112e+01
  2212.500   4.04380640e+01
  2213.000   4.03859369e+01
  2213.500   4.03339293e+01
  2214.000   4.02820411e+01
  2214.500   4.02302718e+01
  2215.000   4.01786210e+01
  2215.500   4.01270883e+01
  2216.000   4.00756734e+01
  2216.500   4.00243759e+01
  2217.000   3.99731954e+01
  2217.500   3.99221315e+01
  2218.000   3.98711839e+01
  2218.500   3.98203523e+01
  2219.000   3.97696361e+01
  2219.500   3.97190352e+01
  2220.000   3.96685491e+01
  2220.500   3.96181774e+01
  2221.000   3.95679198e+01
  2221.500   3.95177759e+01
  2222.000   3.94677455e+01
  2222.500   3.94178280e+01
  2223.000   3.93680232e+01
  2223.500   3.93183307e+01
  2224.000   3.92687501e+01
  2224.500   3.92192812e+01
  2225.000   3.91699235e+01
  2225.500   3.91206768e+01
  2226.000   3.90715406e+01
  2226.500   3.90225146e+01
  2227.000   3.89735985e+01
  2227.500   3.89247919e+01
  2228.000   3.88760945e+01
  2228.500   3.88275059e+01
  2229.000   3.87790259e+01
  2229.500   3.87306541e+01
  2230.000   3.86823901e+01
  2230.500   3.86342336e+01
  2231.000   3.85861842e+01
  2231.500   3.85382417e+01
  2232.000   3.84904058e+01
  2232.500   3.84426760e+01
  2233.000   3.83950521e+01
  2233.500   3.83475337e+01
  2234.000   3.83001205e+01
  2234.500   3.82528122e+01
  2235.000   3.82056084e+01
  2235.500   3.81585089e+01
  2236.000   3.81115133e+01
  2236.500   3.80646213e+01
  2237.000   3.80178326e+01
  2237.500   3.79711469e+01
  2238.000   3.79245638e+01
  2238.500   3.78780830e+01
  2239.000   3.78317043e+01
  2239.500   3.77854273e+01
  2240.000   3.77392517e+01
  2240.500   3.76931772e+01
  2241.000   3.76472035e+01
  2241.500   3.76013303e+01
  2242.000   3.75555573e+01
  2242.500   3.75098841e+01
  2243.000   3.74643105e+01
  2243.500   3.74188362e+01
  2244.000   3.73734609e+01
  2244.500   3.73281842e+01
  2245.000   3.72830059e+01
  2245.500   3.72379257e+01
  2246.000   3.71929433e+01
  2246.500   3.71480584e+01
  2247.000   3.71032707e+01
  2247.500   3.70585798e+01
  2248.000   3.70139856e+01
  2248.500   3.69694877e+01
  2249.000   3.69250859e+01
  2249.500   3.68807798e+01
  2250.000   3.68365691e+01
  2250.500   3.67924537e+01
  2251.000   3.67484331e+01
  2251.500   3.67045072e+01
  2252.000   3.66606755e+01
  2252.500   3.66169380e+01
  2253.000   3.65732942e+01
  2253.500   3.65297438e+01
  2254.000   3.64862867e+01
  2254.500   3.64429226e+01
  2255.000   3.63996510e+01
  2255.500   3.63564719e+01
  2256.000   3.63133849e+01
  2256.500   3.62703897e+01
  2257.000   3.62274861e+01
  2257.500   3.61846738e+01
  2258.000   3.61419525e+01
  2258.500   3.60993220e+01
  2259.000   3.60567820e+01
  2259.500   3.60143322e+01
  2260.000   3.59719724e+01
  2260.500   3.59297022e+01
  2261.000   3.58875215e+01
  2261.500   3.58454300e+01
  2262.000   3.58034274e+01
  2262.500   3.57615135e+01
  2263.000   3.57196879e+01
  2263.500   3.56779505e+01
  2264.000   3.56363009e+01
  2264.500   3.55947390e+01
  2265.000   3.55532644e+01
  2265.500   3.55118770e+01
  2266.000   3.54705764e+01
  2266.500   3.54293624e+01
  2267.000   3.53882348e+01
  2267.500   3.53471933e+01
  2268.000   3.53062377e+01
  2268.500   3.52653676e+01
  2269.000   3.52245829e+01
  2269.500   3.51838834e+01
  2270.000   3.51432687e+01
  2270.500   3.51027386e+01
  2271.000   3.50622929e+01
  2271.500   3.50219313e+01
  2272.000   3.49816536e+01
  2272.500   3.49414596e+01
  2273.000   3.49013490e+01
  2273.500   3.48613216e+01
  2274.000   3.48213771e+01
  2274.500   3.47815153e+01
  2275.000   3.47417360e+01
  2275.500   3.47020389e+01
  2276.000   3.46624238e+01
  2276.500   3.46228904e+01
  2277.000   3.45834386e+01
  2277.500   3.45440681e+01
  2278.000   3.45047786e+01
  2278.500   3.44655700e+01
  2279.000   3.44264419e+01
  2279.500   3.43873943e+01
  2280.000   3.43484267e+01
  2280.500   3.43095391e+01
  2281.000   3.42707312e+01
  2281.500   3.42320027e+01
  2282.000   3.41933535e+01
  2282.500   3.41547833e+01
  2283.000   3.41162919e+01
  2283.500   3.40778791e+01
  2284.000   3.40395446e+01
  2284.500   3.40012882e+01
  2285.000   3.39631098e+01
  2285.500   3.39250090e+01
  2286.000   3.38869858e+01
  2286.500   3.38490397e+01
  2287.000   3.38111708e+01
  2287.500   3.37733786e+01
  2288.000   3.37356630e+01
  2288.500   3.36980239e+01
  2289.000   3.36604609e+01
  2289.500   3.36229739e+01
  2290.000   3.35855626e+01
  2290.500   3.35482269e+01
  2291.000   3.35109666e+01
  2291.500   3.34737813e+01
  2292.000   3.34366710e+01
  2292.500   3.33996354e+01
  2293.000   3.33626743e+01
  2293.500   3.33257874e+01
  2294.000   3.32889747e+01
  2294.500   3.32522359e+01
  2295.000   3.32155707e+01
  2295.500   3.31789790e+01
  2296.000   3.31424606e+01
  2296.500   3.31060152e+01
  2297.000   3.30696428e+01
  2297.500   3.30333430e+01
  2298.000   3.29971156e+01
  2298.500   3.29609606e+01
  2299.000   3.29248776e+01
  2299.500   3.28888665e+01
  2300.000   3.28529271e+01
  2300.500   3.28170591e+01
  2301.000   3.27812625e+01
  2301.500   3.27455369e+01
  2302.000   3.27098822e+01
  2302.500   3.26742983e+01
  2303.000   3.26387848e+01
  2303.500   3.26033417e+01
  2304.000   3.25679687e+01
  2304.500   3.25326656e+01
  2305.000   3.24974323e+01
  2305.500   3.24622685e+01
  2306.000   3.24271741e+01
  2306.500   3.23921489e+01
  2307.000   3.23571927e+01
  2307.500   3.23223053e+01
  2308.000   3.22874865e+01
  2308.500   3.22527362e+01
  2309.000   3.22180541e+01
  2309.500   3.21834400e+01
  2310.000   3.21488939e+01
  2310.500   3.21144155e+01
  2311.000   3.20800045e+01
  2311.500   3.20456609e+01
  2312.000   3.20113845e+01
  2312.500   3.19771751e+01
  2313.000   3.19430324e+01
  2313.500   3.19089564e+01
  2314.000   3.18749468e+01
  2314.500   3.18410034e+01
  2315.000   3.18071262e+01
  2315.500   3.17733148e+01
  2316.000   3.17395692e+01
  2316.500   3.17058892e+01
  2317.000   3.16722745e+01
  2317.500   3.16387251e+01
  2318.000   3.16052407e+01
  2318.500   3.15718211e+01
  2319.000   3.15384662e+01
  2319.500   3.15051759e+01
  2320.000   3.14719499e+01
  2320.500   3.14387881e+01
  2321.000   3.14056903e+01
  2321.500   3.13726563e+01
  2322.000   3.13396860e+01
  2322.500   3.13067793e+01
  2323.000   3.12739358e+01
  2323.500   3.12411555e+01
  2324.000   3.12084383e+01
  2324.500   3.11757838e+01
  2325.000   3.11431921e+01
  2325.500   3.11106628e+01
  2326.000   3.10781959e+01
  2326.500   3.10457912e+01
  2327.000   3.10134484e+01
  2327.500   3.09811676e+01
  2328.000   3.09489484e+01
  2328.500   3.09167908e+01
  2329.000   3.08846946e+01
  2329.500   3.08526595e+01
  2330.000   3.08206855e+01
  2330.500   3.07887724e+01
  2331.000   3.07569201e+01
  2331.500   3.07251283e+01
  2332.000   3.06933970e+01
  2332.500   3.06617259e+01
  2333.000   3.06301149e+01
  2333.500   3.05985639e+01
  2334.000   3.05670727e+01
  2334.500   3.05356411e+01
  2335.000   3.05042690e+01
  2335.500   3.04729562e+01
  2336.000   3.04417027e+01
  2336.500   3.04105081e+01
  2337.000   3.03793724e+01
  2337.500   3.03482955e+01
  2338.000   3.03172772e+01
  2338.500   3.02863172e+01
  2339.000   3.02554156e+01
  2339.500   3.02245720e+01
  2340.000   3.01937865e+01
  2340.500   3.01630588e+01
  2341.000   3.01323887e+01
  2341.500   3.01017762e+01
  2342.000   3.00712211e+01
  2342.500   3.00407232e+01
  2343.000   3.00102825e+01
  2343.500   2.99798986e+01
  2344.000   2.99495716e+01
  2344.500   2.99193012e+01
  2345.000   2.98890874e+01
  2345.500   2.98589299e+01
  2346.000   2.98288287e+01
  2346.500   2.97987835e+01
  2347.000   2.97687943e+01
  2347.500   2.97388610e+01
  2348.000   2.97089832e+01
  2348.500   2.96791610e+01
  2349.000   2.96493942e+01
  2349.500   2.96196826e+01
  2350.000   2.95900261e+01
  2350.500   2.95604246e+01
  2351.000   2.95308780e+01
  2351.500   2.95013860e+01
  2352.000   2.94719485e+01
  2352.500   2.94425655e+01
  2353.000   2.94132368e+01
  2353.500   2.93839622e+01
  2354.000   2.93547416e+01
  2354.500   2.93255749e+01
  2355.000   2.92964619e+01
  2355.500   2.92674026e+01
  2356.000   2.92383967e+01
  2356.500   2.92094441e+01
  2357.000   2.91805448e+01
  2357.500   2.91516985e+01
  2358.000   2.91229052e+01
  2358.500   2.90941647e+01
  2359.000   2.90654769e+01
  2359.500   2.90368416e+01
  2360.000   2.90082587e+01
  2360.500   2.89797281e+01
  2361.000   2.89512497e+01
  2361.500   2.89228233e+01
  2362.000   2.88944489e+01
  2362.500   2.88661262e+01
  2363.000   2.88378551e+01
  2363.500   2.88096356e+01
  2364.000   2.87814674e+01
  2364.500   2.87533506e+01
  2365.000   2.87252848e+01
  2365.500   2.86972701e+01
  2366.000   2.86693063e+01
  2366.500   2.86413932e+01
  2367.000   2.86135308e+01
  2367.500   2.85857189e+01
  2368.000   2.85579575e+01
  2368.500   2.85302462e+01
  2369.000   2.85025852e+01
  2369.500   2.84749741e+01
  2370.000   2.84474130e+01
  2370.500   2.84199016e+01
  2371.000   2.83924400e+01
  2371.500   2.83650278e+01
  2372.000   2.83376651e+01
  2372.500   2.83103517e+01
  2373.000   2.82830875e+01
  2373.500   2.82558723e+01
  2374.000   2.82287061e+01
  2374.500   2.82015887e+01
  2375.000   2.81745200e+01
  2375.500   2.81474999e+01
  2376.000   2.81205283e+01
  2376.500   2.80936051e+01
  2377.000   2.80667301e+01
  2377.500   2.80399032e+01
  2378.000   2.80131244e+01
  2378.500   2.79863934e+01
  2379.000   2.79597102e+01
  2379.500   2.79330747e+01
  2380.000   2.79064867e+01
  2380.500   2.78799462e+01
  2381.000   2.78534530e+01
  2381.500   2.78270071e+01
  2382.000   2.78006082e+01
  2382.500   2.77742563e+01
  2383.000   2.77479513e+01
  2383.500   2.77216930e+01
  2384.000   2.76954814e+01
  2384.500   2.76693164e+01
  2385.000   2.76431978e+01
  2385.500   2.76171255e+01
  2386.000   2.75910994e+01
  2386.500   2.75651195e+01
  2387.000   2.75391855e+01
  2387.500   2.75132974e+01
  2388.000   2.74874551e+01
  2388.500   2.74616585e+01
  2389.000   2.74359074e+01
  2389.500   2.74102018e+01
  2390.000   2.73845415e+01
  2390.500   2.73589265e+01
  2391.000   2.73333566e+01
  2391.500   2.73078317e+01
  2392.000   2.72823518e+01
  2392.500   2.72569167e+01
  2393.000   2.72315263e+01
  2393.500   2.72061805e+01
  2394.000   2.71808792e+01
  2394.500   2.71556224e+01
  2395.000   2.71304098e+01
  2395.500   2.71052414e+01
  2396.000   2.70801171e+01
  2396.500   2.70550368e+01
  2397.000   2.70300004e+01
  2397.500   2.70050078e+01
  2398.000   2.69800589e+01
  2398.500   2.69551535e+01
  2399.000   2.69302917e+01
  2399.500   2.69054732e+01
  2400.000   2.68806980e+01
  2400.500   2.68559660e+01
  2401.000   2.68312770e+01
  2401.500   2.68066311e+01
  2402.000   2.67820280e+01
  2402.500   2.67574677e+01
  2403.000   2.67329501e+01
  2403.500   2.67084751e+01
  2404.000   2.66840426e+01
  2404.500   2.66596525e+01
  2405.000   2.66353047e+01
  2405.500   2.66109991e+01
  2406.000   2.65867355e+01
  2406.500   2.65625140e+01
  2407.000   2.65383344e+01
  2407.500   2.65141967e+01
  2408.000   2.64901006e+01
  2408.500   2.64660462e+01
  2409.000   2.64420333e+01
  2409.500   2.64180618e+01
  2410.000   2.63941317e+01
  2410.500   2.63702428e+01
  2411.000   2.63463951e+01
  2411.500   2.63225885e+01
  2412.000   2.62988228e+01
  2412.500   2.62750980e+01
  2413.000   2.62514140e+01
  2413.500   2.62277706e+01
  2414.000   2.62041679e+01
  2414.500   2.61806057e+01
  2415.000   2.61570839e+01
  2415.500   2.61336025e+01
  2416.000   2.61101612e+01
  2416.500   2.60867602e+01
  2417.000   2.60633991e+01
  2417.500   2.60400781e+01
  2418.000   2.60167969e+01
  2418.500   2.59935555e+01
  2419.000   2.59703538e+01
  2419.500   2.59471918e+01
  2420.000   2.59240692e+01
  2420.500   2.59009861e+01
  2421.000   2.58779423e+01
  2421.500   2.58549378e+01
  2422.000   2.58319725e+01
  2422.500   2.58090462e+01
  2423.000   2.57861590e+01
  2423.500   2.57633106e+01
  2424.000   2.57405011e+01
  2424.500   2.57177304e+01
  2425.000   2.56949982e+01
  2425.500   2.56723047e+01
  2426.000   2.56496496e+01
  2426.500   2.56270330e+01
  2427.000   2.56044546e+01
  2427.500   2.55819145e+01
  2428.000   2.55594126e+01
  2428.500   2.55369487e+01
  2429.000   2.55145227e+01
  2429.500   2.54921347e+01
  2430.000   2.54697845e+01
  2430.500   2.54474720e+01
  2431.000   2.54251972e+01
  2431.500   2.54029599e+01
  2432.000   2.53807601e+01
  2432.500   2.53585978e+01
  2433.000   2.53364727e+01
  2433.500   2.53143849e+01
  2434.000   2.52923343e+01
  2434.500   2.52703207e+01
  2435.000   2.52483441e+01
  2435.500   2.52264045e+01
  2436.000   2.52045016e+01
  2436.500   2.51826356e+01
  2437.000   2.51608062e+01
  2437.500   2.51390134e+01
  2438.000   2.51172572e+01
  2438.500   2.50955373e+01
  2439.000   2.50738539e+01
  2439.500   2.50522067e+01
  2440.000   2.50305958e+01
  2440.500   2.50090210e+01
  2441.000   2.49874822e+01
  2441.500   2.49659794e+01
  2442.000   2.49445125e+01
  2442.500   2.49230814e+01
  2443.000   2.49016861e+01
  2443.500   2.48803264e+01
  2444.000   2.48590024e+01
  2444.500   2.48377138e+01
  2445.000   2.48164607e+01
  2445.500   2.47952430e+01
  2446.000   2.47740605e+01
  2446.500   2.47529133e+01
  2447.000   2.47318012e+01
  2447.500   2.47107242e+01
  2448.000   2.46896822e+01
  2448.500   2.46686751e+01
  2449.000   2.46477028e+01
  2449.500   2.46267653e+01
  2450.000   2.46058625e+01
  2450.500   2.45849944e+01
  2451.000   2.45641608e+01
  2451.500   2.45433616e+01
  2452.000   2.45225969e+01
  2452.500   2.45018665e+01
  2453.000   2.44811704e+01
  2453.500   2.44605085e+01
  2454.000   2.44398807e+01
  2454.500   2.44192869e+01
  2455.000   2.43987271e+01
  2455.500   2.43782013e+01
  2456.000   2.43577093e+01
  2456.500   2.43372510e+01
  2457.000   2.43168264e+01
  2457.500   2.42964355e+01
  2458.000   2.42760781e+01
  2458.500   2.42557542e+01
  2459.000   2.42354637e+01
  2459.500   2.42152066e+01
  2460.000   2.41949828e+01
  2460.500   2.41747921e+01
  2461.000   2.41546347e+01
  2461.500   2.41345103e+01
  2462.000   2.41144188e+01
  2462.500   2.40943604e+01
  2463.000   2.40743348e+01
  2463.500   2.40543420e+01
  2464.000   2.40343820e+01
  2464.500   2.40144546e+01
  2465.000   2.39945598e+01
  2465.500   2.39746976e+01
  2466.000   2.39548678e+01
  2466.500   2.39350704e+01
  2467.000   2.39153054e+01
  2467.500   2.38955726e+01
  2468.000   2.38758721e+01
  2468.500   2.38562037e+01
  2469.000   2.38365674e+01
  2469.500   2.38169631e+01
  2470.000   2.37973907e+01
  2470.500   2.37778502e+01
  2471.000   2.37583415e+01
  2471.500   2.37388646e+01
  2472.000   2.37194194e+01
  2472.500   2.37000058e+01
  2473.000   2.36806238e+01
  2473.500   2.36612733e+01
  2474.000   2.36419542e+01
  2474.500   2.36226664e+01
  2475.000   2.36034100e+01
  2475.500   2.35841849e+01
  2476.000   2.35649909e+01
  2476.500   2.35458280e+01
  2477.000   2.35266962e+01
  2477.500   2.35075954e+01
  2478.000   2.34885256e+01
  2478.500   2.34694866e+01
  2479.000   2.34504784e+01
  2479.500   2.34315010e+01
  2480.000   2.34125543e+01
  2480.500   2.33936382e+01
  2481.000   2.33747527e+01
  2481.500   2.33558977e+01
  2482.000   2.33370731e+01
  2482.500   2.33182790e+01
  2483.000   2.32995152e+01
  2483.500   2.32807816e+01
  2484.000   2.32620783e+01
  2484.500   2.32434051e+01
  2485.000   2.32247620e+01
  2485.500   2.32061489e+01
  2486.000   2.31875658e+01
  2486.500   2.31690127e+01
  2487.000   2.31504894e+01
  2487.500   2.31319959e+01
  2488.000   2.31135321e+01
  2488.500   2.30950981e+01
  2489.000   2.30766936e+01
  2489.500   2.30583188e+01
  2490.000   2.30399734e+01
  2490.500   2.30216575e+01
  2491.000   2.30033710e+01
  2491.500   2.29851139e+01
  2492.000   2.29668860e+01
  2492.500   2.29486874e+01
  2493.000   2.29305179e+01
  2493.500   2.29123776e+01
  2494.000   2.28942663e+01
  2494.500   2.28761840e+01
  2495.000   2.28581307e+01
  2495.500   2.28401063e+01
  2496.000   2.28221107e+01
  2496.500   2.28041439e+01
  2497.000   2.27862058e+01
  2497.500   2.27682965e+01
  2498.000   2.27504157e+01
  2498.500   2.27325635e+01
  2499.000   2.27147398e+01
  2499.500   2.26969446e+01
  2500.000   2.26791778e+01
  2500.500   2.26614393e+01
  2501.000   2.26437292e+01
  2501.500   2.26260473e+01
  2502.000   2.26083935e+01
  2502.500   2.25907679e+01
  2503.000   2.25731705e+01
  2503.500   2.25556010e+01
  2504.000   2.25380595e+01
  2504.500   2.25205460e+01
  2505.000   2.25030603e+01
  2505.500   2.24856024e+01
  2506.000   2.24681724e+01
  2506.500   2.24507700e+01
  2507.000   2.24333953e+01
  2507.500   2.24160483e+01
  2508.000   2.23987288e+01
  2508.500   2.23814368e+01
  2509.000   2.23641723e+01
  2509.500   2.23469352e+01
  2510.000   2.23297255e+01
  2510.500   2.23125431e+01
  2511.000   2.22953879e+01
  2511.500   2.22782600e+01
  2512.000   2.22611592e+01
  2512.500   2.22440856e+01
  2513.000   2.22270390e+01
  2513.500   2.22100194e+01
  2514.000   2.21930268e+01
  2514.500   2.21760611e+01
  2515.000   2.21591223e+01
  2515.500   2.21422103e+01
  2516.000   2.21253250e+01
  2516.500   2.21084665e+01
  2517.000   2.20916347e+01
  2517.500   2.20748295e+01
  2518.000   2.20580509e+01
  2518.500   2.20412988e+01
  2519.000   2.20245731e+01
  2519.500   2.20078740e+01
  2520.000   2.19912012e+01
  2520.500   2.19745547e+01
  2521.000   2.19579346e+01
  2521.500   2.19413406e+01
  2522.000   2.19247729e+01
  2522.500   2.19082314e+01
  2523.000   2.18917159e+01
  2523.500   2.18752265e+01
  2524.000   2.18587631e+01
  2524.500   2.18423257e+01
  2525.000   2.18259142e+01
  2525.500   2.18095286e+01
  2526.000   2.17931688e+01
  2526.500   2.17768348e+01
  2527.000   2.17605265e+01
  2527.500   2.17442439e+01
  2528.000   2.17279870e+01
  2528.500   2.17117557e+01
  2529.000   2.16955499e+01
  2529.500   2.16793696e+01
  2530.000   2.16632149e+01
  2530.500   2.16470855e+01
  2531.000   2.16309815e+01
  2531.500   2.16149029e+01
  2532.000   2.15988495e+01
  2532.500   2.15828214e+01
  2533.000   2.15668185e+01
  2533.500   2.15508408e+01
  2534.000   2.15348882e+01
  2534.500   2.15189607e+01
  2535.000   2.15030582e+01
  2535.500   2.14871807e+01
  2536.000   2.14713281e+01
  2536.500   2.14555004e+01
  2537.000   2.14396976e+01
  2537.500   2.14239196e+01
  2538.000   2.14081664e+01
  2538.500   2.13924380e+01
  2539.000   2.13767342e+01
  2539.500   2.13610551e+01
  2540.000   2.13454006e+01
  2540.500   2.13297706e+01
  2541.000   2.13141652e+01
  2541.500   2.12985842e+01
  2542.000   2.12830278e+01
  2542.500   2.12674957e+01
  2543.000   2.12519879e+01
  2543.500   2.12365045e+01
  2544.000   2.12210454e+01
  2544.500   2.12056105e+01
  2545.000   2.11901998e+01
  2545.500   2.11748133e+01
  2546.000   2.11594509e+01
  2546.500   2.11441126e+01
  2547.000   2.11287983e+01
  2547.500   2.11135080e+01
  2548.000   2.10982417e+01
  2548.500   2.10829993e+01
  2549.000   2.10677807e+01
  2549.500   2.10525861e+01
  2550.000   2.10374152e+01
  2550.500   2.10222681e+01
  2551.000   2.10071447e+01
  2551.500   2.09920450e+01
  2552.000   2.09769689e+01
  2552.500   2.09619165e+01
  2553.000   2.09468876e+01
  2553.500   2.09318823e+01
  2554.000   2.09169005e+01
  2554.500   2.09019421e+01
  2555.000   2.08870071e+01
  2555.500   2.08720955e+01
  2556.000   2.08572073e+01
  2556.500   2.08423424e+01
  2557.000   2.08275008e+01
  2557.500   2.08126823e+01
  2558.000   2.07978871e+01
  2558.500   2.07831151e+01
  2559.000   2.07683661e+01
  2559.500   2.07536403e+01
  2560.000   2.07389375e+01
  2560.500   2.07242577e+01
  2561.000   2.07096009e+01
  2561.500   2.06949671e+01
  2562.000   2.06803561e+01
  2562.500   2.06657680e+01
  2563.000   2.06512028e+01
  2563.500   2.06366603e+01
  2564.000   2.06221406e+01
  2564.500   2.06076437e+01
  2565.000   2.05931694e+01
  2565.500   2.05787178e+01
  2566.000   2.05642888e+01
  2566.500   2.05498824e+01
  2567.000   2.05354986e+01
  2567.500   2.05211373e+01
  2568.000   2.05067984e+01
  2568.500   2.04924821e+01
  2569.000   2.04781881e+01
  2569.500   2.04639165e+01
  2570.000   2.04496673e+01
  2570.500   2.04354403e+01
  2571.000   2.04212357e+01
  2571.500   2.04070533e+01
  2572.000   2.03928931e+01
  2572.500   2.03787551e+01
  2573.000   2.03646393e+01
  2573.500   2.03505455e+01
  2574.000   2.03364739e+01
  2574.500   2.03224243e+01
  2575.000   2.03083967e+01
  2575.500   2.02943910e+01
  2576.000   2.02804074e+01
  2576.500   2.02664456e+01
  2577.000   2.02525058e+01
  2577.500   2.02385878e+01
  2578.000   2.02246916e+01
  2578.500   2.02108172e+01
  2579.000   2.01969646e+01
  2579.500   2.01831336e+01
  2580.000   2.01693244e+01
  2580.500   2.01555369e+01
  2581.000   2.01417710e+01
  2581.500   2.01280266e+01
  2582.000   2.01143039e+01
  2582.500   2.01006027e+01
  2583.000   2.00869230e+01
  2583.500   2.00732647e+01
  2584.000   2.00596280e+01
  2584.500   2.00460126e+01
  2585.000   2.00324186e+01
  2585.500   2.00188460e+01
  2586.000   2.00052947e+01
  2586.500   1.99917647e+01
  2587.000   1.99782560e+01
  2587.500   1.99647685e+01
  2588.000   1.99513022e+01
  2588.500   1.99378570e+01
  2589.000   1.99244331e+01
  2589.500   1.99110302e+01
  2590.000   1.98976484e+01
  2590.500   1.98842877e+01
  2591.000   1.98709481e+01
  2591.500   1.98576294e+01
  2592.000   1.98443317e+01
  2592.500   1.98310549e+01
  2593.000   1.98177991e+01
  2593.500   1.98045641e+01
  2594.000   1.97913500e+01
  2594.500   1.97781568e+01
  2595.000   1.97649843e+01
  2595.500   1.97518326e+01
  2596.000   1.97387017e+01
  2596.500   1.97255914e+01
  2597.000   1.97125019e+01
  2597.500   1.96994330e+01
  2598.000   1.96863848e+01
  2598.500   1.96733572e+01
  2599.000   1.96603501e+01
  2599.500   1.96473637e+01
  2600.000   1.96343977e+01
  2600.500   1.96214522e+01
  2601.000   1.96085273e+01
  2601.500   1.95956227e+01
  2602.000   1.95827386e+01
  2602.500   1.95698749e+01
  2603.000   1.95570316e+01
  2603.500   1.95442086e+01
  2604.000   1.95314059e+01
  2604.500   1.95186235e+01
  2605.000   1.95058614e+01
  2605.500   1.94931195e+01
  2606.000   1.94803978e+01
  2606.500   1.94676963e+01
  2607.000   1.94550150e+01
  2607.500   1.94423538e+01
  2608.000   1.94297127e+01
  2608.500   1.94170918e+01
  2609.000   1.94044908e+01
  2609.500   1.93919100e+01
  2610.000   1.93793491e+01
  2610.500   1.93668082e+01
  2611.000   1.93542873e+01
  2611.500   1.93417863e+01
  2612.000   1.93293053e+01
  2612.500   1.93168441e+01
  2613.000   1.93044028e+01
  2613.500   1.92919814e+01
  2614.000   1.92795798e+01
  2614.500   1.92671979e+01
  2615.000   1.92548359e+01
  2615.500   1.92424935e+01
  2616.000   1.92301710e+01
  2616.500   1.92178681e+01
  2617.000   1.92055849e+01
  2617.500   1.91933213e+01
  2618.000   1.91810774e+01
  2618.500   1.91688531e+01
  2619.000   1.91566484e+01
  2619.500   1.91444633e+01
  2620.000   1.91322977e+01
  2620.500   1.91201516e+01
  2621.000   1.91080250e+01
  2621.500   1.90959179e+01
  2622.000   1.90838303e+01
  2622.500   1.90717621e+01
  2623.000   1.90597133e+01
  2623.500   1.90476839e+01
  2624.000   1.90356739e+01
  2624.500   1.90236832e+01
  2625.000   1.90117118e+01
  2625.500   1.89997597e+01
  2626.000   1.89878270e+01
  2626.500   1.89759134e+01
  2627.000   1.89640192e+01
  2627.500   1.89521441e+01
  2628.000   1.89402883e+01
  2628.500   1.89284516e+01
  2629.000   1.89166341e+01
  2629.500   1.89048357e+01
  2630.000   1.88930564e+01
  2630.500   1.88812963e+01
  2631.000   1.88695552e+01
  2631.500   1.88578332e+01
  2632.000   1.88461302e+01
  2632.500   1.88344462e+01
  2633.000   1.88227813e+01
  2633.500   1.88111353e+01
  2634.000   1.87995083e+01
  2634.500   1.87879002e+01
  2635.000   1.87763110e+01
  2635.500   1.87647408e+01
  2636.000   1.87531894e+01
  2636.500   1.87416569e+01
  2637.000   1.87301433e+01
  2637.500   1.87186484e+01
  2638.000   1.87071724e+01
  2638.500   1.86957152e+01
  2639.000   1.86842768e+01
  2639.500   1.86728571e+01
  2640.000   1.86614561e+01
  2640.500   1.86500739e+01
  2641.000   1.86387103e+01
  2641.500   1.86273655e+01
  2642.000   1.86160393e+01
  2642.500   1.86047318e+01
  2643.000   1.85934429e+01
  2643.500   1.85821726e+01
  2644.000   1.85709209e+01
  2644.500   1.85596878e+01
  2645.000   1.85484733e+01
  2645.500   1.85372773e+01
  2646.000   1.85260998e+01
  2646.500   1.85149409e+01
  2647.000   1.85038004e+01
  2647.500   1.84926784e+01
  2648.000   1.84815749e+01
  2648.500   1.84704899e+01
  2649.000   1.84594233e+01
  2649.500   1.84483751e+01
  2650.000   1.84373453e+01
  2650.500   1.84263339e+01
  2651.000   1.84153408e+01
  2651.500   1.84043661e+01
  2652.000   1.83934098e+01
  2652.500   1.83824718e+01
  2653.000   1.83715520e+01
  2653.500   1.83606506e+01
  2654.000   1.83497675e+01
  2654.500   1.83389026e+01
  2655.000   1.83280560e+01
  2655.500   1.83172276e+01
  2656.000   1.83064174e+01
  2656.500   1.82956255e+01
  2657.000   1.82848517e+01
  2657.500   1.82740961e+01
  2658.000   1.82633587e+01
  2658.500   1.82526395e+01
  2659.000   1.82419383e+01
  2659.500   1.82312553e+01
  2660.000   1.82205905e+01
  2660.500   1.82099437e+01
  2661.000   1.81993150e+01
  2661.500   1.81887043e+01
  2662.000   1.81781118e+01
  2662.500   1.81675372e+01
  2663.000   1.81569807e+01
  2663.500   1.81464423e+01
  2664.000   1.81359218e+01
  2664.500   1.81254193e+01
  2665.000   1.81149348e+01
  2665.500   1.81044683e+01
  2666.000   1.80940198e+01
  2666.500   1.80835892e+01
  2667.000   1.80731765e+01
  2667.500   1.80627817e+01
  2668.000   1.80524049e+01
  2668.500   1.80420460e+01
  2669.000   1.80317049e+01
  2669.500   1.80213818e+01
  2670.000   1.80110765e+01
  2670.500   1.80007890e+01
  2671.000   1.79905194e+01
  2671.500   1.79802677e+01
  2672.000   1.79700337e+01
  2672.500   1.79598176e+01
  2673.000   1.79496193e+01
  2673.500   1.79394388e+01
  2674.000   1.79292760e+01
  2674.500   1.79191311e+01
  2675.000   1.79090039e+01
  2675.500   1.78988944e+01
  2676.000   1.78888027e+01
  2676.500   1.78787287e+01
  2677.000   1.78686725e+01
  2677.500   1.78586340e+01
  2678.000   1.78486131e+01
  2678.500   1.78386100e+01
  2679.000   1.78286246e+01
  2679.500   1.78186568e+01
  2680.000   1.78087067e+01
  2680.500   1.77987743e+01
  2681.000   1.77888596e+01
  2681.500   1.77789624e+01
  2682.000   1.77690830e+01
  2682.500   1.77592211e+01
  2683.000   1.77493769e+01
  2683.500   1.77395503e+01
  2684.000   1.77297413e+01
  2684.500   1.77199499e+01
  2685.000   1.77101761e+01
  2685.500   1.77004199e+01
  2686.000   1.76906812e+01
  2686.500   1.76809601e+01
  2687.000   1.76712566e+01
  2687.500   1.76615707e+01
  2688.000   1.76519023e+01
  2688.500   1.76422514e+01
  2689.000   1.76326181e+01
  2689.500   1.76230023e+01
  2690.000   1.76134041e+01
  2690.500   1.76038233e+01
  2691.000   1.75942601e+01
  2691.500   1.75847144e+01
  2692.000   1.75751862e+01
  2692.500   1.75656755e+01
  2693.000   1.75561823e+01
  2693.500   1.75467066e+01
  2694.000   1.75372483e+01
  2694.500   1.75278075e+01
  2695.000   1.75183843e+01
  2695.500   1.75089784e+01
  2696.000   1.74995901e+01
  2696.500   1.74902192e+01
  2697.000   1.74808657e+01
  2697.500   1.74715297e+01
  2698.000   1.74622112e+01
  2698.500   1.74529101e+01
  2699.000   1.74436264e+01
  2699.500   1.74343602e+01
  2700.000   1.74251114e+01
  2700.500   1.74158800e+01
  2701.000   1.74066661e+01
  2701.500   1.73974696e+01
  2702.000   1.73882905e+01
  2702.500   1.73791289e+01
  2703.000   1.73699846e+01
  2703.500   1.73608578e+01
  2704.000   1.73517484e+01
  2704.500   1.73426563e+01
  2705.000   1.73335817e+01
  2705.500   1.73245245e+01
  2706.000   1.73154847e+01
  2706.500   1.73064623e+01
  2707.000   1.72974574e+01
  2707.500   1.72884698e+01
  2708.000   1.72794996e+01
  2708.500   1.72705468e+01
  2709.000   1.72616114e+01
  2709.500   1.72526934e+01
  2710.000   1.72437928e+01
  2710.500   1.72349096e+01
  2711.000   1.72260438e+01
  2711.500   1.72171954e+01
  2712.000   1.72083644e+01
  2712.500   1.71995508e+01
  2713.000   1.71907545e+01
  2713.500   1.71819757e+01
  2714.000   1.71732143e+01
  2714.500   1.71644703e+01
  2715.000   1.71557437e+01
  2715.500   1.71470345e+01
  2716.000   1.71383426e+01
  2716.500   1.71296682e+01
  2717.000   1.71210112e+01
  2717.500   1.71123716e+01
  2718.000   1.71037494e+01
  2718.500   1.70951447e+01
  2719.000   1.70865573e+01
  2719.500   1.70779874e+01
  2720.000   1.70694349e+01
  2720.500   1.70608998e+01
  2721.000   1.70523821e+01
  2721.500   1.70438818e+01
  2722.000   1.70353990e+01
  2722.500   1.70269337e+01
  2723.000   1.70184857e+01
  2723.500   1.70100552e+01
  2724.000   1.70016422e+01
  2724.500   1.69932466e+01
  2725.000   1.69848685e+01
  2725.500   1.69765078e+01
  2726.000   1.69681646e+01
  2726.500   1.69598388e+01
  2727.000   1.69515306e+01
  2727.500   1.69432398e+01
  2728.000   1.69349665e+01
  2728.500   1.69267107e+01
  2729.000   1.69184723e+01
  2729.500   1.69102515e+01
  2730.000   1.69020482e+01
  2730.500   1.68938624e+01
  2731.000   1.68856941e+01
  2731.500   1.68775434e+01
  2732.000   1.68694102e+01
  2732.500   1.68612945e+01
  2733.000   1.68531964e+01
  2733.500   1.68451158e+01
  2734.000   1.68370528e+01
  2734.500   1.68290074e+01
  2735.000   1.68209795e+01
  2735.500   1.68129692e+01
  2736.000   1.68049766e+01
  2736.500   1.67970015e+01
  2737.000   1.67890440e+01
  2737.500   1.67811042e+01
  2738.000   1.67731820e+01
  2738.500   1.67652774e+01
  2739.000   1.67573905e+01
  2739.500   1.67495212e+01
  2740.000   1.67416696e+01
  2740.500   1.67338356e+01
  2741.000   1.67260194e+01
  2741.500   1.67182208e+01
  2742.000   1.67104400e+01
  2742.500   1.67026769e+01
  2743.000   1.66949315e+01
  2743.500   1.66872038e+01
  2744.000   1.66794939e+01
  2744.500   1.66718018e+01
  2745.000   1.66641274e+01
  2745.500   1.66564708e+01
  2746.000   1.66488321e+01
  2746.500   1.66412111e+01
  2747.000   1.66336079e+01
  2747.500   1.66260226e+01
  2748.000   1.66184552e+01
  2748.500   1.66109056e+01
  2749.000   1.66033738e+01
  2749.500   1.65958600e+01
  2750.000   1.65883641e+01
  2750.500   1.65808860e+01
  2751.000   1.65734260e+01
  2751.500   1.65659838e+01
  2752.000   1.65585596e+01
  2752.500   1.65511534e+01
  2753.000   1.65437652e+01
  2753.500   1.65363950e+01
  2754.000   1.65290428e+01
  2754.500   1.65217086e+01
  2755.000   1.65143925e+01
  2755.500   1.65070945e+01
  2756.000   1.64998146e+01
  2756.500   1.64925527e+01
  2757.000   1.64853090e+01
  2757.500   1.64780834e+01
  2758.000   1.64708759e+01
  2758.500   1.64636867e+01
  2759.000   1.64565156e+01
  2759.500   1.64493627e+01
  2760.000   1.64422281e+01
  2760.500   1.64351117e+01
  2761.000   1.64280135e+01
  2761.500   1.64209337e+01
  2762.000   1.64138721e+01
  2762.500   1.64068289e+01
  2763.000   1.63998040e+01
  2763.500   1.63927974e+01
  2764.000   1.63858093e+01
  2764.500   1.63788395e+01
  2765.000   1.63718882e+01
  2765.500   1.63649553e+01
  2766.000   1.63580408e+01
  2766.500   1.63511449e+01
  2767.000   1.63442675e+01
  2767.500   1.63374085e+01
  2768.000   1.63305682e+01
  2768.500   1.63237464e+01
  2769.000   1.63169432e+01
  2769.500   1.63101587e+01
  2770.000   1.63033927e+01
  2770.500   1.62966455e+01
  2771.000   1.62899169e+01
  2771.500   1.62832071e+01
  2772.000   1.62765160e+01
  2772.500   1.62698436e+01
  2773.000   1.62631901e+01
  2773.500   1.62565554e+01
  2774.000   1.62499395e+01
  2774.500   1.62433425e+01
  2775.000   1.62367643e+01
  2775.500   1.62302051e+01
  2776.000   1.62236649e+01
  2776.500   1.62171436e+01
  2777.000   1.62106413e+01
  2777.500   1.62041580e+01
  2778.000   1.61976938e+01
  2778.500   1.61912487e+01
  2779.000   1.61848227e+01
  2779.500   1.61784159e+01
  2780.000   1.61720282e+01
  2780.500   1.61656597e+01
  2781.000   1.61593104e+01
  2781.500   1.61529805e+01
  2782.000   1.61466698e+01
  2782.500   1.61403784e+01
  2783.000   1.61341064e+01
  2783.500   1.61278537e+01
  2784.000   1.61216205e+01
  2784.500   1.61154068e+01
  2785.000   1.61092125e+01
  2785.500   1.61030377e+01
  2786.000   1.60968825e+01
  2786.500   1.60907468e+01
  2787.000   1.60846308e+01
  2787.500   1.60785344e+01
  2788.000   1.60724577e+01
  2788.500   1.60664008e+01
  2789.000   1.60603636e+01
  2789.500   1.60543461e+01
  2790.000   1.60483485e+01
  2790.500   1.60423708e+01
  2791.000   1.60364129e+01
  2791.500   1.60304750e+01
  2792.000   1.60245571e+01
  2792.500   1.60186591e+01
  2793.000   1.60127813e+01
  2793.500   1.60069235e+01
  2794.000   1.60010858e+01
  2794.500   1.59952683e+01
  2795.000   1.59894710e+01
  2795.500   1.59836939e+01
  2796.000   1.59779371e+01
  2796.500   1.59722007e+01
  2797.000   1.59664846e+01
  2797.500   1.59607889e+01
  2798.000   1.59551137e+01
  2798.500   1.59494590e+01
  2799.000   1.59438248e+01
  2799.500   1.59382111e+01
  2800.000   1.59326181e+01
  2800.500   1.59270458e+01
  2801.000   1.59214942e+01
  2801.500   1.59159633e+01
  2802.000   1.59104532e+01
  2802.500   1.59049640e+01
  2803.000   1.58994956e+01
  2803.500   1.58940482e+01
  2804.000   1.58886218e+01
  2804.500   1.58832164e+01
  2805.000   1.58778321e+01
  2805.500   1.58724689e+01
  2806.000   1.58671269e+01
  2806.500   1.58618061e+01
  2807.000   1.58565066e+01
  2807.500   1.58512285e+01
  2808.000   1.58459717e+01
  2808.500   1.58407363e+01
  2809.000   1.58355224e+01
  2809.500   1.58303300e+01
  2810.000   1.58251592e+01
  2810.500   1.58200101e+01
  2811.000   1.58148826e+01
  2811.500   1.58097769e+01
  2812.000   1.58046930e+01
  2812.500   1.57996309e+01
  2813.000   1.57945908e+01
  2813.500   1.57895726e+01
  2814.000   1.57845764e+01
  2814.500   1.57796023e+01
  2815.000   1.57746504e+01
  2815.500   1.57697206e+01
  2816.000   1.57648131e+01
  2816.500   1.57599279e+01
  2817.000   1.57550650e+01
  2817.500   1.57502246e+01
  2818.000   1.57454067e+01
  2818.500   1.57406114e+01
  2819.000   1.57358386e+01
  2819.500   1.57310886e+01
  2820.000   1.57263612e+01
  2820.500   1.57216567e+01
  2821.000   1.57169751e+01
  2821.500   1.57123163e+01
  2822.000   1.57076806e+01
  2822.500   1.57030679e+01
  2823.000   1.56984784e+01
  2823.500   1.56939121e+01
  2824.000   1.56893690e+01
  2824.500   1.56848493e+01
  2825.000   1.56803529e+01
  2825.500   1.56758801e+01
  2826.000   1.56714308e+01
  2826.500   1.56670051e+01
  2827.000   1.56626030e+01
  2827.500   1.56582248e+01
  2828.000   1.56538703e+01
  2828.500   1.56495398e+01
  2829.000   1.56452333e+01
  2829.500   1.56409508e+01
  2830.000   1.56366924e+01
  2830.500   1.56324582e+01
  2831.000   1.56282483e+01
  2831.500   1.56240628e+01
  2832.000   1.56199017e+01
  2832.500   1.56157651e+01
  2833.000   1.56116531e+01
  2833.500   1.56075658e+01
  2834.000   1.56035033e+01
  2834.500   1.55994656e+01
  2835.000   1.55954528e+01
  2835.500   1.55914650e+01
  2836.000   1.55875023e+01
  2836.500   1.55835648e+01
  2837.000   1.55796526e+01
  2837.500   1.55757656e+01
  2838.000   1.55719042e+01
  2838.500   1.55680682e+01
  2839.000   1.55642579e+01
  2839.500   1.55604732e+01
  2840.000   1.55567144e+01
  2840.500   1.55529814e+01
  2841.000   1.55492744e+01
  2841.500   1.55455935e+01
  2842.000   1.55419388e+01
  2842.500   1.55383103e+01
  2843.000   1.55347081e+01
  2843.500   1.55311324e+01
  2844.000   1.55275833e+01
  2844.500   1.55240608e+01
  2845.000   1.55205650e+01
  2845.500   1.55170961e+01
  2846.000   1.55136542e+01
  2846.500   1.55102393e+01
  2847.000   1.55068515e+01
  2847.500   1.55034910e+01
  2848.000   1.55001578e+01
  2848.500   1.54968522e+01
  2849.000   1.54935741e+01
  2849.500   1.54903236e+01
  2850.000   1.54871010e+01
  2850.500   1.54839063e+01
  2851.000   1.54807396e+01
  2851.500   1.54776010e+01
  2852.000   1.54744906e+01
  2852.500   1.54714086e+01
  2853.000   1.54683551e+01
  2853.500   1.54653301e+01
  2854.000   1.54623339e+01
  2854.500   1.54593665e+01
  2855.000   1.54564280e+01
  2855.500   1.54535186e+01
  2856.000   1.54506383e+01
  2856.500   1.54477874e+01
  2857.000   1.54449659e+01
  2857.500   1.54421739e+01
  2858.000   1.54394116e+01
  2858.500   1.54366792e+01
  2859.000   1.54339766e+01
  2859.500   1.54313042e+01
  2860.000   1.54286619e+01
  2860.500   1.54260500e+01
  2861.000   1.54234686e+01
  2861.500   1.54209178e+01
  2862.000   1.54183977e+01
  2862.500   1.54159084e+01
  2863.000   1.54134502e+01
  2863.500   1.54110232e+01
  2864.000   1.54086275e+01
  2864.500   1.54062632e+01
  2865.000   1.54039305e+01
  2865.500   1.54016295e+01
  2866.000   1.53993605e+01
  2866.500   1.53971235e+01
  2867.000   1.53949186e+01
  2867.500   1.53927461e+01
  2868.000   1.53906061e+01
  2868.500   1.53884988e+01
  2869.000   1.53864242e+01
  2869.500   1.53843826e+01
  2870.000   1.53823742e+01
  2870.500   1.53803990e+01
  2871.000   1.53784573e+01
  2871.500   1.53765492e+01
  2872.000   1.53746749e+01
  2872.500   1.53728345e+01
  2873.000   1.53710283e+01
  2873.500   1.53692564e+01
  2874.000   1.53675189e+01
  2874.500   1.53658161e+01
  2875.000   1.53641481e+01
  2875.500   1.53625151e+01
  2876.000   1.53609173e+01
  2876.500   1.53593548e+01
  2877.000   1.53578279e+01
  2877.500   1.53563368e+01
  2878.000   1.53548816e+01
  2878.500   1.53534625e+01
  2879.000   1.53520797e+01
  2879.500   1.53507334e+01
  2880.000   1.53494238e+01
  2880.500   1.53481511e+01
  2881.000   1.53469155e+01
  2881.500   1.53457173e+01
  2882.000   1.53445565e+01
  2882.500   1.53434335e+01
  2883.000   1.53423484e+01
  2883.500   1.53413014e+01
  2884.000   1.53402928e+01
  2884.500   1.53393228e+01
  2885.000   1.53383916e+01
  2885.500   1.53374994e+01
  2886.000   1.53366464e+01
  2886.500   1.53358329e+01
  2887.000   1.53350591e+01
  2887.500   1.53343253e+01
  2888.000   1.53336316e+01
  2888.500   1.53329783e+01
  2889.000   1.53323656e+01
  2889.500   1.53317938e+01
  2890.000   1.53312632e+01
  2890.500   1.53307739e+01
  2891.000   1.53303262e+01
  2891.500   1.53299205e+01
  2892.000   1.53295568e+01
  2892.500   1.53292356e+01
  2893.000   1.53289570e+01
  2893.500   1.53287214e+01
  2894.000   1.53285289e+01
  2894.500   1.53283800e+01
  2895.000   1.53282747e+01
  2895.500   1.53282135e+01
  2896.000   1.53281966e+01
  2896.500   1.53282242e+01
  2897.000   1.53282968e+01
  2897.500   1.53284145e+01
  2898.000   1.53285776e+01
  2898.500   1.53287866e+01
  2899.000   1.53290416e+01
  2899.500   1.53293429e+01
  2900.000   1.53296910e+01
  2900.500   1.53300860e+01
  2901.000   1.53305283e+01
  2901.500   1.53310183e+01
  2902.000   1.53315563e+01
  2902.500   1.53321425e+01
  2903.000   1.53327773e+01
  2903.500   1.53334612e+01
  2904.000   1.53341943e+01
  2904.500   1.53349770e+01
  2905.000   1.53358098e+01
  2905.500   1.53366929e+01
  2906.000   1.53376268e+01
  2906.500   1.53386117e+01
  2907.000   1.53396481e+01
  2907.500   1.53407363e+01
  2908.000   1.53418767e+01
  2908.500   1.53430697e+01
  2909.000   1.53443157e+01
  2909.500   1.53456151e+01
  2910.000   1.53469682e+01
  2910.500   1.53483755e+01
  2911.000   1.53498374e+01
  2911.500   1.53513544e+01
  2912.000   1.53529267e+01
  2912.500   1.53545549e+01
  2913.000   1.53562395e+01
  2913.500   1.53579807e+01
  2914.000   1.53597791e+01
  2914.500   1.53616352e+01
  2915.000   1.53635494e+01
  2915.500   1.53655221e+01
  2916.000   1.53675539e+01
  2916.500   1.53696451e+01
  2917.000   1.53717964e+01
  2917.500   1.53740082e+01
  2918.000   1.53762809e+01
  2918.500   1.53786152e+01
  2919.000   1.53810115e+01
  2919.500   1.53834703e+01
  2920.000   1.53859922e+01
  2920.500   1.53885777e+01
  2921.000   1.53912273e+01
  2921.500   1.53939417e+01
  2922.000   1.53967213e+01
  2922.500   1.53995668e+01
  2923.000   1.54024787e+01
  2923.500   1.54054576e+01
  2924.000   1.54085042e+01
  2924.500   1.54116190e+01
  2925.000   1.54148026e+01
  2925.500   1.54180557e+01
  2926.000   1.54213789e+01
  2926.500   1.54247729e+01
  2927.000   1.54282383e+01
  2927.500   1.54317758e+01
  2928.000   1.54353861e+01
  2928.500   1.54390699e+01
  2929.000   1.54428278e+01
  2929.500   1.54466607e+01
  2930.000   1.54505691e+01
  2930.500   1.54545540e+01
  2931.000   1.54586159e+01
  2931.500   1.54627557e+01
  2932.000   1.54669742e+01
  2932.500   1.54712722e+01
  2933.000   1.54756504e+01
  2933.500   1.54801097e+01
  2934.000   1.54846510e+01
  2934.500   1.54892750e+01
  2935.000   1.54939827e+01
  2935.500   1.54987749e+01
  2936.000   1.55036526e+01
  2936.500   1.55086166e+01
  2937.000   1.55136678e+01
  2937.500   1.55188073e+01
  2938.000   1.55240361e+01
  2938.500   1.55293550e+01
  2939.000   1.55347651e+01
  2939.500   1.55402674e+01
  2940.000   1.55458631e+01
  2940.500   1.55515530e+01
  2941.000   1.55573384e+01
  2941.500   1.55632203e+01
  2942.000   1.55691999e+01
  2942.500   1.55752783e+01
  2943.000   1.55814568e+01
  2943.500   1.55877364e+01
  2944.000   1.55941185e+01
  2944.500   1.56006042e+01
  2945.000   1.56071950e+01
  2945.500   1.56138920e+01
  2946.000   1.56206966e+01
  2946.500   1.56276102e+01
  2947.000   1.56346341e+01
  2947.500   1.56417699e+01
  2948.000   1.56490189e+01
  2948.500   1.56563826e+01
  2949.000   1.56638626e+01
  2949.500   1.56714604e+01
  2950.000   1.56791776e+01
  2950.500   1.56870158e+01
  2951.000   1.56949767e+01
  2951.500   1.57030620e+01
  2952.000   1.57112735e+01
  2952.500   1.57196129e+01
  2953.000   1.57280820e+01
  2953.500   1.57366828e+01
  2954.000   1.57454170e+01
  2954.500   1.57542868e+01
  2955.000   1.57632942e+01
  2955.500   1.57724410e+01
  2956.000   1.57817296e+01
  2956.500   1.57911621e+01
  2957.000   1.58007406e+01
  2957.500   1.58104675e+01
  2958.000   1.58203451e+01
  2958.500   1.58303758e+01
  2959.000   1.58405621e+01
  2959.500   1.58509064e+01
  2960.000   1.58614115e+01
  2960.500   1.58720799e+01
  2961.000   1.58829145e+01
  2961.500   1.58939179e+01
  2962.000   1.59050932e+01
  2962.500   1.59164432e+01
  2963.000   1.59279711e+01
  2963.500   1.59396800e+01
  2964.000   1.59515732e+01
  2964.500   1.59636539e+01
  2965.000   1.59759256e+01
  2965.500   1.59883918e+01
  2966.000   1.60010562e+01
  2966.500   1.60139225e+01
  2967.000   1.60269945e+01
  2967.500   1.60402763e+01
  2968.000   1.60537719e+01
  2968.500   1.60674856e+01
  2969.000   1.60814217e+01
  2969.500   1.60955846e+01
  2970.000   1.61099792e+01
  2970.500   1.61246100e+01
  2971.000   1.61394821e+01
  2971.500   1.61546006e+01
  2972.000   1.61699708e+01
  2972.500   1.61855980e+01
  2973.000   1.62014880e+01
  2973.500   1.62176465e+01
  2974.000   1.62340796e+01
  2974.500   1.62507934e+01
  2975.000   1.62677945e+01
  2975.500   1.62850895e+01
  2976.000   1.63026853e+01
  2976.500   1.63205890e+01
  2977.000   1.63388081e+01
  2977.500   1.63573502e+01
  2978.000   1.63762233e+01
  2978.500   1.63954356e+01
  2979.000   1.64149957e+01
  2979.500   1.64349125e+01
  2980.000   1.64551951e+01
  2980.500   1.64758532e+01
  2981.000   1.64968966e+01
  2981.500   1.65183357e+01
  2982.000   1.65401812e+01
  2982.500   1.65624442e+01
  2983.000   1.65851362e+01
  2983.500   1.66082695e+01
  2984.000   1.66318563e+01
  2984.500   1.66559099e+01
  2985.000   1.66804437e+01
  2985.500   1.67054719e+01
  2986.000   1.67310092e+01
  2986.500   1.67570708e+01
  2987.000   1.67836729e+01
  2987.500   1.68108321e+01
  2988.000   1.68385656e+01
  2988.500   1.68668917e+01
  2989.000   1.68958292e+01
  2989.500   1.69253978e+01
  2990.000   1.69556182e+01
  2990.500   1.69865118e+01
  2991.000   1.70181011e+01
  2991.500   1.70504096e+01
  2992.000   1.70834617e+01
  2992.500   1.71172832e+01
  2993.000   1.71519008e+01
  2993.500   1.71873425e+01
  2994.000   1.72236378e+01
  2994.500   1.72608171e+01
  2995.000   1.72989127e+01
  2995.500   1.73379581e+01
  2996.000   1.73779885e+01
  2996.500   1.74190407e+01
  2997.000   1.74611532e+01
  2997.500   1.75043665e+01
  2998.000   1.75487227e+01
  2998.500   1.75942662e+01
  2999.000   1.76410432e+01
  2999.500   1.76891024e+01
