# # Created with Intravib version 0.0.9g 
# # Total reorganization energy:   964.953286 cm^-1
     0.000   0.00000000e+00
     0.500   5.45677382e-03
     1.000   1.09256254e-02
     1.500   1.64065865e-02
     2.000   2.18996891e-02
     2.500   2.74049653e-02
     3.000   3.29224471e-02
     3.500   3.84521668e-02
     4.000   4.39941569e-02
     4.500   4.95484497e-02
     5.000   5.51150778e-02
     5.500   6.06940740e-02
     6.000   6.62854710e-02
     6.500   7.18893017e-02
     7.000   7.75055992e-02
     7.500   8.31343966e-02
     8.000   8.87757270e-02
     8.500   9.44296240e-02
     9.000   1.00096121e-01
     9.500   1.05775251e-01
    10.000   1.11467049e-01
    10.500   1.17171548e-01
    11.000   1.22888782e-01
    11.500   1.28618785e-01
    12.000   1.34361591e-01
    12.500   1.40117234e-01
    13.000   1.45885749e-01
    13.500   1.51667171e-01
    14.000   1.57461534e-01
    14.500   1.63268872e-01
    15.000   1.69089221e-01
    15.500   1.74922616e-01
    16.000   1.80769091e-01
    16.500   1.86628683e-01
    17.000   1.92501426e-01
    17.500   1.98387355e-01
    18.000   2.04286507e-01
    18.500   2.10198917e-01
    19.000   2.16124621e-01
    19.500   2.22063655e-01
    20.000   2.28016055e-01
    20.500   2.33981857e-01
    21.000   2.39961098e-01
    21.500   2.45953814e-01
    22.000   2.51960042e-01
    22.500   2.57979818e-01
    23.000   2.64013179e-01
    23.500   2.70060163e-01
    24.000   2.76120806e-01
    24.500   2.82195146e-01
    25.000   2.88283220e-01
    25.500   2.94385065e-01
    26.000   3.00500720e-01
    26.500   3.06630221e-01
    27.000   3.12773608e-01
    27.500   3.18930918e-01
    28.000   3.25102188e-01
    28.500   3.31287459e-01
    29.000   3.37486767e-01
    29.500   3.43700152e-01
    30.000   3.49927652e-01
    30.500   3.56169306e-01
    31.000   3.62425153e-01
    31.500   3.68695233e-01
    32.000   3.74979585e-01
    32.500   3.81278247e-01
    33.000   3.87591260e-01
    33.500   3.93918664e-01
    34.000   4.00260498e-01
    34.500   4.06616802e-01
    35.000   4.12987617e-01
    35.500   4.19372982e-01
    36.000   4.25772939e-01
    36.500   4.32187527e-01
    37.000   4.38616789e-01
    37.500   4.45060763e-01
    38.000   4.51519492e-01
    38.500   4.57993017e-01
    39.000   4.64481379e-01
    39.500   4.70984619e-01
    40.000   4.77502780e-01
    40.500   4.84035903e-01
    41.000   4.90584029e-01
    41.500   4.97147202e-01
    42.000   5.03725464e-01
    42.500   5.10318856e-01
    43.000   5.16927422e-01
    43.500   5.23551203e-01
    44.000   5.30190245e-01
    44.500   5.36844588e-01
    45.000   5.43514277e-01
    45.500   5.50199354e-01
    46.000   5.56899865e-01
    46.500   5.63615851e-01
    47.000   5.70347357e-01
    47.500   5.77094428e-01
    48.000   5.83857107e-01
    48.500   5.90635438e-01
    49.000   5.97429468e-01
    49.500   6.04239239e-01
    50.000   6.11064797e-01
    50.500   6.17906187e-01
    51.000   6.24763455e-01
    51.500   6.31636645e-01
    52.000   6.38525804e-01
    52.500   6.45430977e-01
    53.000   6.52352211e-01
    53.500   6.59289550e-01
    54.000   6.66243042e-01
    54.500   6.73212734e-01
    55.000   6.80198671e-01
    55.500   6.87200901e-01
    56.000   6.94219470e-01
    56.500   7.01254427e-01
    57.000   7.08305818e-01
    57.500   7.15373691e-01
    58.000   7.22458095e-01
    58.500   7.29559075e-01
    59.000   7.36676682e-01
    59.500   7.43810964e-01
    60.000   7.50961968e-01
    60.500   7.58129744e-01
    61.000   7.65314341e-01
    61.500   7.72515808e-01
    62.000   7.79734194e-01
    62.500   7.86969549e-01
    63.000   7.94221922e-01
    63.500   8.01491364e-01
    64.000   8.08777925e-01
    64.500   8.16081655e-01
    65.000   8.23402605e-01
    65.500   8.30740825e-01
    66.000   8.38096367e-01
    66.500   8.45469281e-01
    67.000   8.52859619e-01
    67.500   8.60267434e-01
    68.000   8.67692776e-01
    68.500   8.75135697e-01
    69.000   8.82596251e-01
    69.500   8.90074489e-01
    70.000   8.97570465e-01
    70.500   9.05084230e-01
    71.000   9.12615840e-01
    71.500   9.20165346e-01
    72.000   9.27732802e-01
    72.500   9.35318263e-01
    73.000   9.42921782e-01
    73.500   9.50543414e-01
    74.000   9.58183214e-01
    74.500   9.65841236e-01
    75.000   9.73517534e-01
    75.500   9.81212166e-01
    76.000   9.88925185e-01
    76.500   9.96656649e-01
    77.000   1.00440661e+00
    77.500   1.01217513e+00
    78.000   1.01996226e+00
    78.500   1.02776806e+00
    79.000   1.03559259e+00
    79.500   1.04343590e+00
    80.000   1.05129806e+00
    80.500   1.05917911e+00
    81.000   1.06707912e+00
    81.500   1.07499814e+00
    82.000   1.08293624e+00
    82.500   1.09089347e+00
    83.000   1.09886990e+00
    83.500   1.10686557e+00
    84.000   1.11488056e+00
    84.500   1.12291492e+00
    85.000   1.13096871e+00
    85.500   1.13904199e+00
    86.000   1.14713482e+00
    86.500   1.15524727e+00
    87.000   1.16337940e+00
    87.500   1.17153126e+00
    88.000   1.17970292e+00
    88.500   1.18789444e+00
    89.000   1.19610588e+00
    89.500   1.20433731e+00
    90.000   1.21258879e+00
    90.500   1.22086039e+00
    91.000   1.22915216e+00
    91.500   1.23746418e+00
    92.000   1.24579650e+00
    92.500   1.25414919e+00
    93.000   1.26252231e+00
    93.500   1.27091594e+00
    94.000   1.27933013e+00
    94.500   1.28776496e+00
    95.000   1.29622049e+00
    95.500   1.30469678e+00
    96.000   1.31319391e+00
    96.500   1.32171194e+00
    97.000   1.33025094e+00
    97.500   1.33881097e+00
    98.000   1.34739211e+00
    98.500   1.35599442e+00
    99.000   1.36461798e+00
    99.500   1.37326285e+00
   100.000   1.38192911e+00
   100.500   1.39061681e+00
   101.000   1.39932605e+00
   101.500   1.40805687e+00
   102.000   1.41680937e+00
   102.500   1.42558360e+00
   103.000   1.43437965e+00
   103.500   1.44319758e+00
   104.000   1.45203747e+00
   104.500   1.46089939e+00
   105.000   1.46978341e+00
   105.500   1.47868961e+00
   106.000   1.48761807e+00
   106.500   1.49656886e+00
   107.000   1.50554205e+00
   107.500   1.51453773e+00
   108.000   1.52355596e+00
   108.500   1.53259683e+00
   109.000   1.54166041e+00
   109.500   1.55074678e+00
   110.000   1.55985601e+00
   110.500   1.56898820e+00
   111.000   1.57814342e+00
   111.500   1.58732174e+00
   112.000   1.59652325e+00
   112.500   1.60574803e+00
   113.000   1.61499615e+00
   113.500   1.62426771e+00
   114.000   1.63356279e+00
   114.500   1.64288146e+00
   115.000   1.65222381e+00
   115.500   1.66158993e+00
   116.000   1.67097990e+00
   116.500   1.68039380e+00
   117.000   1.68983172e+00
   117.500   1.69929375e+00
   118.000   1.70877997e+00
   118.500   1.71829047e+00
   119.000   1.72782534e+00
   119.500   1.73738467e+00
   120.000   1.74696854e+00
   120.500   1.75657705e+00
   121.000   1.76621029e+00
   121.500   1.77586834e+00
   122.000   1.78555131e+00
   122.500   1.79525928e+00
   123.000   1.80499234e+00
   123.500   1.81475060e+00
   124.000   1.82453413e+00
   124.500   1.83434305e+00
   125.000   1.84417744e+00
   125.500   1.85403740e+00
   126.000   1.86392303e+00
   126.500   1.87383443e+00
   127.000   1.88377169e+00
   127.500   1.89373492e+00
   128.000   1.90372422e+00
   128.500   1.91373968e+00
   129.000   1.92378141e+00
   129.500   1.93384952e+00
   130.000   1.94394409e+00
   130.500   1.95406525e+00
   131.000   1.96421310e+00
   131.500   1.97438773e+00
   132.000   1.98458927e+00
   132.500   1.99481781e+00
   133.000   2.00507346e+00
   133.500   2.01535634e+00
   134.000   2.02566656e+00
   134.500   2.03600423e+00
   135.000   2.04636945e+00
   135.500   2.05676236e+00
   136.000   2.06718305e+00
   136.500   2.07763164e+00
   137.000   2.08810826e+00
   137.500   2.09861301e+00
   138.000   2.10914603e+00
   138.500   2.11970742e+00
   139.000   2.13029732e+00
   139.500   2.14091583e+00
   140.000   2.15156309e+00
   140.500   2.16223922e+00
   141.000   2.17294435e+00
   141.500   2.18367860e+00
   142.000   2.19444210e+00
   142.500   2.20523499e+00
   143.000   2.21605738e+00
   143.500   2.22690942e+00
   144.000   2.23779124e+00
   144.500   2.24870297e+00
   145.000   2.25964475e+00
   145.500   2.27061672e+00
   146.000   2.28161902e+00
   146.500   2.29265178e+00
   147.000   2.30371515e+00
   147.500   2.31480927e+00
   148.000   2.32593429e+00
   148.500   2.33709036e+00
   149.000   2.34827762e+00
   149.500   2.35949622e+00
   150.000   2.37074632e+00
   150.500   2.38202807e+00
   151.000   2.39334162e+00
   151.500   2.40468714e+00
   152.000   2.41606478e+00
   152.500   2.42747470e+00
   153.000   2.43891706e+00
   153.500   2.45039203e+00
   154.000   2.46189978e+00
   154.500   2.47344048e+00
   155.000   2.48501429e+00
   155.500   2.49662138e+00
   156.000   2.50826194e+00
   156.500   2.51993614e+00
   157.000   2.53164416e+00
   157.500   2.54338618e+00
   158.000   2.55516238e+00
   158.500   2.56697295e+00
   159.000   2.57881807e+00
   159.500   2.59069794e+00
   160.000   2.60261276e+00
   160.500   2.61456270e+00
   161.000   2.62654798e+00
   161.500   2.63856879e+00
   162.000   2.65062533e+00
   162.500   2.66271780e+00
   163.000   2.67484643e+00
   163.500   2.68701140e+00
   164.000   2.69921294e+00
   164.500   2.71145126e+00
   165.000   2.72372658e+00
   165.500   2.73603911e+00
   166.000   2.74838908e+00
   166.500   2.76077671e+00
   167.000   2.77320222e+00
   167.500   2.78566586e+00
   168.000   2.79816784e+00
   168.500   2.81070840e+00
   169.000   2.82328779e+00
   169.500   2.83590623e+00
   170.000   2.84856397e+00
   170.500   2.86126125e+00
   171.000   2.87399832e+00
   171.500   2.88677542e+00
   172.000   2.89959281e+00
   172.500   2.91245074e+00
   173.000   2.92534946e+00
   173.500   2.93828922e+00
   174.000   2.95127029e+00
   174.500   2.96429293e+00
   175.000   2.97735739e+00
   175.500   2.99046393e+00
   176.000   3.00361283e+00
   176.500   3.01680435e+00
   177.000   3.03003874e+00
   177.500   3.04331628e+00
   178.000   3.05663724e+00
   178.500   3.07000187e+00
   179.000   3.08341046e+00
   179.500   3.09686326e+00
   180.000   3.11036053e+00
   180.500   3.12390255e+00
   181.000   3.13748958e+00
   181.500   3.15112188e+00
   182.000   3.16479972e+00
   182.500   3.17852333e+00
   183.000   3.19229299e+00
   183.500   3.20610895e+00
   184.000   3.21997144e+00
   184.500   3.23388072e+00
   185.000   3.24783701e+00
   185.500   3.26184056e+00
   186.000   3.27589158e+00
   186.500   3.28999030e+00
   187.000   3.30413692e+00
   187.500   3.31833164e+00
   188.000   3.33257466e+00
   188.500   3.34686616e+00
   189.000   3.36120631e+00
   189.500   3.37559525e+00
   190.000   3.39003315e+00
   190.500   3.40452012e+00
   191.000   3.41905628e+00
   191.500   3.43364173e+00
   192.000   3.44827655e+00
   192.500   3.46296079e+00
   193.000   3.47769450e+00
   193.500   3.49247769e+00
   194.000   3.50731036e+00
   194.500   3.52219248e+00
   195.000   3.53712399e+00
   195.500   3.55210482e+00
   196.000   3.56713484e+00
   196.500   3.58221393e+00
   197.000   3.59734190e+00
   197.500   3.61251855e+00
   198.000   3.62774365e+00
   198.500   3.64301691e+00
   199.000   3.65833803e+00
   199.500   3.67370665e+00
   200.000   3.68912238e+00
   200.500   3.70458480e+00
   201.000   3.72009342e+00
   201.500   3.73564775e+00
   202.000   3.75124721e+00
   202.500   3.76689121e+00
   203.000   3.78257909e+00
   203.500   3.79831018e+00
   204.000   3.81408373e+00
   204.500   3.82989895e+00
   205.000   3.84575504e+00
   205.500   3.86165110e+00
   206.000   3.87758624e+00
   206.500   3.89355949e+00
   207.000   3.90956986e+00
   207.500   3.92561631e+00
   208.000   3.94169777e+00
   208.500   3.95781314e+00
   209.000   3.97396127e+00
   209.500   3.99014100e+00
   210.000   4.00635112e+00
   210.500   4.02259044e+00
   211.000   4.03885771e+00
   211.500   4.05515169e+00
   212.000   4.07147111e+00
   212.500   4.08781473e+00
   213.000   4.10418129e+00
   213.500   4.12056953e+00
   214.000   4.13697821e+00
   214.500   4.15340612e+00
   215.000   4.16985206e+00
   215.500   4.18631487e+00
   216.000   4.20279342e+00
   216.500   4.21928662e+00
   217.000   4.23579343e+00
   217.500   4.25231289e+00
   218.000   4.26884407e+00
   218.500   4.28538610e+00
   219.000   4.30193822e+00
   219.500   4.31849972e+00
   220.000   4.33506996e+00
   220.500   4.35164842e+00
   221.000   4.36823464e+00
   221.500   4.38482827e+00
   222.000   4.40142903e+00
   222.500   4.41803677e+00
   223.000   4.43465142e+00
   223.500   4.45127300e+00
   224.000   4.46790166e+00
   224.500   4.48453762e+00
   225.000   4.50118122e+00
   225.500   4.51783287e+00
   226.000   4.53449311e+00
   226.500   4.55116255e+00
   227.000   4.56784190e+00
   227.500   4.58453194e+00
   228.000   4.60123355e+00
   228.500   4.61794768e+00
   229.000   4.63467535e+00
   229.500   4.65141766e+00
   230.000   4.66817576e+00
   230.500   4.68495087e+00
   231.000   4.70174424e+00
   231.500   4.71855720e+00
   232.000   4.73539108e+00
   232.500   4.75224727e+00
   233.000   4.76912719e+00
   233.500   4.78603228e+00
   234.000   4.80296399e+00
   234.500   4.81992379e+00
   235.000   4.83691316e+00
   235.500   4.85393358e+00
   236.000   4.87098652e+00
   236.500   4.88807345e+00
   237.000   4.90519585e+00
   237.500   4.92235515e+00
   238.000   4.93955279e+00
   238.500   4.95679018e+00
   239.000   4.97406871e+00
   239.500   4.99138973e+00
   240.000   5.00875457e+00
   240.500   5.02616455e+00
   241.000   5.04362093e+00
   241.500   5.06112495e+00
   242.000   5.07867782e+00
   242.500   5.09628069e+00
   243.000   5.11393470e+00
   243.500   5.13164095e+00
   244.000   5.14940050e+00
   244.500   5.16721435e+00
   245.000   5.18508351e+00
   245.500   5.20300891e+00
   246.000   5.22099146e+00
   246.500   5.23903204e+00
   247.000   5.25713149e+00
   247.500   5.27529062e+00
   248.000   5.29351019e+00
   248.500   5.31179094e+00
   249.000   5.33013358e+00
   249.500   5.34853879e+00
   250.000   5.36700720e+00
   250.500   5.38553944e+00
   251.000   5.40413610e+00
   251.500   5.42279773e+00
   252.000   5.44152487e+00
   252.500   5.46031803e+00
   253.000   5.47917771e+00
   253.500   5.49810437e+00
   254.000   5.51709845e+00
   254.500   5.53616037e+00
   255.000   5.55529056e+00
   255.500   5.57448938e+00
   256.000   5.59375722e+00
   256.500   5.61309443e+00
   257.000   5.63250134e+00
   257.500   5.65197830e+00
   258.000   5.67152560e+00
   258.500   5.69114355e+00
   259.000   5.71083244e+00
   259.500   5.73059256e+00
   260.000   5.75042416e+00
   260.500   5.77032751e+00
   261.000   5.79030286e+00
   261.500   5.81035046e+00
   262.000   5.83047054e+00
   262.500   5.85066333e+00
   263.000   5.87092907e+00
   263.500   5.89126796e+00
   264.000   5.91168023e+00
   264.500   5.93216609e+00
   265.000   5.95272575e+00
   265.500   5.97335940e+00
   266.000   5.99406726e+00
   266.500   6.01484952e+00
   267.000   6.03570638e+00
   267.500   6.05663803e+00
   268.000   6.07764468e+00
   268.500   6.09872651e+00
   269.000   6.11988372e+00
   269.500   6.14111650e+00
   270.000   6.16242505e+00
   270.500   6.18380955e+00
   271.000   6.20527021e+00
   271.500   6.22680722e+00
   272.000   6.24842077e+00
   272.500   6.27011106e+00
   273.000   6.29187829e+00
   273.500   6.31372266e+00
   274.000   6.33564436e+00
   274.500   6.35764361e+00
   275.000   6.37972060e+00
   275.500   6.40187555e+00
   276.000   6.42410866e+00
   276.500   6.44642015e+00
   277.000   6.46881022e+00
   277.500   6.49127909e+00
   278.000   6.51382699e+00
   278.500   6.53645413e+00
   279.000   6.55916074e+00
   279.500   6.58194705e+00
   280.000   6.60481327e+00
   280.500   6.62775966e+00
   281.000   6.65078643e+00
   281.500   6.67389384e+00
   282.000   6.69708212e+00
   282.500   6.72035151e+00
   283.000   6.74370227e+00
   283.500   6.76713464e+00
   284.000   6.79064888e+00
   284.500   6.81424524e+00
   285.000   6.83792398e+00
   285.500   6.86168538e+00
   286.000   6.88552969e+00
   286.500   6.90945718e+00
   287.000   6.93346813e+00
   287.500   6.95756281e+00
   288.000   6.98174150e+00
   288.500   7.00600449e+00
   289.000   7.03035206e+00
   289.500   7.05478450e+00
   290.000   7.07930210e+00
   290.500   7.10390516e+00
   291.000   7.12859398e+00
   291.500   7.15336886e+00
   292.000   7.17823011e+00
   292.500   7.20317804e+00
   293.000   7.22821295e+00
   293.500   7.25333517e+00
   294.000   7.27854501e+00
   294.500   7.30384280e+00
   295.000   7.32922886e+00
   295.500   7.35470353e+00
   296.000   7.38026713e+00
   296.500   7.40592000e+00
   297.000   7.43166249e+00
   297.500   7.45749493e+00
   298.000   7.48341767e+00
   298.500   7.50943106e+00
   299.000   7.53553546e+00
   299.500   7.56173122e+00
   300.000   7.58801870e+00
   300.500   7.61439827e+00
   301.000   7.64087028e+00
   301.500   7.66743513e+00
   302.000   7.69409316e+00
   302.500   7.72084478e+00
   303.000   7.74769035e+00
   303.500   7.77463026e+00
   304.000   7.80166490e+00
   304.500   7.82879466e+00
   305.000   7.85601993e+00
   305.500   7.88334112e+00
   306.000   7.91075863e+00
   306.500   7.93827285e+00
   307.000   7.96588421e+00
   307.500   7.99359312e+00
   308.000   8.02139998e+00
   308.500   8.04930523e+00
   309.000   8.07730928e+00
   309.500   8.10541257e+00
   310.000   8.13361552e+00
   310.500   8.16191857e+00
   311.000   8.19032216e+00
   311.500   8.21882673e+00
   312.000   8.24743273e+00
   312.500   8.27614060e+00
   313.000   8.30495081e+00
   313.500   8.33386380e+00
   314.000   8.36288004e+00
   314.500   8.39200000e+00
   315.000   8.42122413e+00
   315.500   8.45055293e+00
   316.000   8.47998685e+00
   316.500   8.50952639e+00
   317.000   8.53917203e+00
   317.500   8.56892426e+00
   318.000   8.59878356e+00
   318.500   8.62875044e+00
   319.000   8.65882539e+00
   319.500   8.68900893e+00
   320.000   8.71930155e+00
   320.500   8.74970378e+00
   321.000   8.78021613e+00
   321.500   8.81083911e+00
   322.000   8.84157326e+00
   322.500   8.87241911e+00
   323.000   8.90337719e+00
   323.500   8.93444803e+00
   324.000   8.96563218e+00
   324.500   8.99693018e+00
   325.000   9.02834260e+00
   325.500   9.05986997e+00
   326.000   9.09151286e+00
   326.500   9.12327184e+00
   327.000   9.15514748e+00
   327.500   9.18714034e+00
   328.000   9.21925101e+00
   328.500   9.25148006e+00
   329.000   9.28382809e+00
   329.500   9.31629568e+00
   330.000   9.34888344e+00
   330.500   9.38159196e+00
   331.000   9.41442184e+00
   331.500   9.44737371e+00
   332.000   9.48044817e+00
   332.500   9.51364584e+00
   333.000   9.54696735e+00
   333.500   9.58041332e+00
   334.000   9.61398440e+00
   334.500   9.64768122e+00
   335.000   9.68150443e+00
   335.500   9.71545468e+00
   336.000   9.74953262e+00
   336.500   9.78373890e+00
   337.000   9.81807421e+00
   337.500   9.85253920e+00
   338.000   9.88713455e+00
   338.500   9.92186095e+00
   339.000   9.95671907e+00
   339.500   9.99170961e+00
   340.000   1.00268333e+01
   340.500   1.00620908e+01
   341.000   1.00974828e+01
   341.500   1.01330100e+01
   342.000   1.01686732e+01
   342.500   1.02044731e+01
   343.000   1.02404104e+01
   343.500   1.02764858e+01
   344.000   1.03127002e+01
   344.500   1.03490541e+01
   345.000   1.03855485e+01
   345.500   1.04221840e+01
   346.000   1.04589614e+01
   346.500   1.04958815e+01
   347.000   1.05329451e+01
   347.500   1.05701529e+01
   348.000   1.06075057e+01
   348.500   1.06450044e+01
   349.000   1.06826497e+01
   349.500   1.07204424e+01
   350.000   1.07583833e+01
   350.500   1.07964733e+01
   351.000   1.08347132e+01
   351.500   1.08731039e+01
   352.000   1.09116461e+01
   352.500   1.09503407e+01
   353.000   1.09891885e+01
   353.500   1.10281905e+01
   354.000   1.10673474e+01
   354.500   1.11066602e+01
   355.000   1.11461298e+01
   355.500   1.11857570e+01
   356.000   1.12255427e+01
   356.500   1.12654878e+01
   357.000   1.13055932e+01
   357.500   1.13458599e+01
   358.000   1.13862887e+01
   358.500   1.14268807e+01
   359.000   1.14676367e+01
   359.500   1.15085577e+01
   360.000   1.15496446e+01
   360.500   1.15908985e+01
   361.000   1.16323202e+01
   361.500   1.16739108e+01
   362.000   1.17156713e+01
   362.500   1.17576026e+01
   363.000   1.17997058e+01
   363.500   1.18419819e+01
   364.000   1.18844319e+01
   364.500   1.19270569e+01
   365.000   1.19698579e+01
   365.500   1.20128359e+01
   366.000   1.20559921e+01
   366.500   1.20993275e+01
   367.000   1.21428433e+01
   367.500   1.21865404e+01
   368.000   1.22304201e+01
   368.500   1.22744834e+01
   369.000   1.23187316e+01
   369.500   1.23631656e+01
   370.000   1.24077868e+01
   370.500   1.24525963e+01
   371.000   1.24975953e+01
   371.500   1.25427849e+01
   372.000   1.25881664e+01
   372.500   1.26337410e+01
   373.000   1.26795099e+01
   373.500   1.27254745e+01
   374.000   1.27716359e+01
   374.500   1.28179955e+01
   375.000   1.28645545e+01
   375.500   1.29113143e+01
   376.000   1.29582761e+01
   376.500   1.30054413e+01
   377.000   1.30528113e+01
   377.500   1.31003874e+01
   378.000   1.31481711e+01
   378.500   1.31961636e+01
   379.000   1.32443664e+01
   379.500   1.32927809e+01
   380.000   1.33414087e+01
   380.500   1.33902510e+01
   381.000   1.34393094e+01
   381.500   1.34885855e+01
   382.000   1.35380805e+01
   382.500   1.35877962e+01
   383.000   1.36377340e+01
   383.500   1.36878955e+01
   384.000   1.37382822e+01
   384.500   1.37888958e+01
   385.000   1.38397377e+01
   385.500   1.38908097e+01
   386.000   1.39421134e+01
   386.500   1.39936503e+01
   387.000   1.40454223e+01
   387.500   1.40974309e+01
   388.000   1.41496778e+01
   388.500   1.42021648e+01
   389.000   1.42548936e+01
   389.500   1.43078660e+01
   390.000   1.43610837e+01
   390.500   1.44145486e+01
   391.000   1.44682624e+01
   391.500   1.45222269e+01
   392.000   1.45764441e+01
   392.500   1.46309158e+01
   393.000   1.46856438e+01
   393.500   1.47406301e+01
   394.000   1.47958766e+01
   394.500   1.48513854e+01
   395.000   1.49071582e+01
   395.500   1.49631972e+01
   396.000   1.50195044e+01
   396.500   1.50760817e+01
   397.000   1.51329314e+01
   397.500   1.51900553e+01
   398.000   1.52474558e+01
   398.500   1.53051349e+01
   399.000   1.53630947e+01
   399.500   1.54213375e+01
   400.000   1.54798654e+01
   400.500   1.55386807e+01
   401.000   1.55977857e+01
   401.500   1.56571827e+01
   402.000   1.57168739e+01
   402.500   1.57768617e+01
   403.000   1.58371485e+01
   403.500   1.58977367e+01
   404.000   1.59586288e+01
   404.500   1.60198271e+01
   405.000   1.60813342e+01
   405.500   1.61431525e+01
   406.000   1.62052848e+01
   406.500   1.62677334e+01
   407.000   1.63305011e+01
   407.500   1.63935905e+01
   408.000   1.64570043e+01
   408.500   1.65207452e+01
   409.000   1.65848159e+01
   409.500   1.66492193e+01
   410.000   1.67139581e+01
   410.500   1.67790352e+01
   411.000   1.68444536e+01
   411.500   1.69102160e+01
   412.000   1.69763256e+01
   412.500   1.70427853e+01
   413.000   1.71095982e+01
   413.500   1.71767673e+01
   414.000   1.72442958e+01
   414.500   1.73121869e+01
   415.000   1.73804437e+01
   415.500   1.74490695e+01
   416.000   1.75180677e+01
   416.500   1.75874415e+01
   417.000   1.76571943e+01
   417.500   1.77273297e+01
   418.000   1.77978510e+01
   418.500   1.78687617e+01
   419.000   1.79400656e+01
   419.500   1.80117661e+01
   420.000   1.80838670e+01
   420.500   1.81563720e+01
   421.000   1.82292848e+01
   421.500   1.83026093e+01
   422.000   1.83763494e+01
   422.500   1.84505089e+01
   423.000   1.85250919e+01
   423.500   1.86001025e+01
   424.000   1.86755447e+01
   424.500   1.87514226e+01
   425.000   1.88277406e+01
   425.500   1.89045028e+01
   426.000   1.89817136e+01
   426.500   1.90593773e+01
   427.000   1.91374986e+01
   427.500   1.92160817e+01
   428.000   1.92951315e+01
   428.500   1.93746524e+01
   429.000   1.94546492e+01
   429.500   1.95351267e+01
   430.000   1.96160897e+01
   430.500   1.96975431e+01
   431.000   1.97794919e+01
   431.500   1.98619412e+01
   432.000   1.99448961e+01
   432.500   2.00283618e+01
   433.000   2.01123435e+01
   433.500   2.01968466e+01
   434.000   2.02818765e+01
   434.500   2.03674387e+01
   435.000   2.04535388e+01
   435.500   2.05401823e+01
   436.000   2.06273751e+01
   436.500   2.07151230e+01
   437.000   2.08034318e+01
   437.500   2.08923075e+01
   438.000   2.09817561e+01
   438.500   2.10717839e+01
   439.000   2.11623969e+01
   439.500   2.12536016e+01
   440.000   2.13454042e+01
   440.500   2.14378114e+01
   441.000   2.15308296e+01
   441.500   2.16244655e+01
   442.000   2.17187260e+01
   442.500   2.18136177e+01
   443.000   2.19091477e+01
   443.500   2.20053230e+01
   444.000   2.21021507e+01
   444.500   2.21996380e+01
   445.000   2.22977924e+01
   445.500   2.23966212e+01
   446.000   2.24961319e+01
   446.500   2.25963322e+01
   447.000   2.26972299e+01
   447.500   2.27988328e+01
   448.000   2.29011488e+01
   448.500   2.30041861e+01
   449.000   2.31079528e+01
   449.500   2.32124573e+01
   450.000   2.33177080e+01
   450.500   2.34237134e+01
   451.000   2.35304823e+01
   451.500   2.36380235e+01
   452.000   2.37463459e+01
   452.500   2.38554587e+01
   453.000   2.39653711e+01
   453.500   2.40760924e+01
   454.000   2.41876323e+01
   454.500   2.43000004e+01
   455.000   2.44132066e+01
   455.500   2.45272611e+01
   456.000   2.46421739e+01
   456.500   2.47579556e+01
   457.000   2.48746167e+01
   457.500   2.49921680e+01
   458.000   2.51106206e+01
   458.500   2.52299857e+01
   459.000   2.53502748e+01
   459.500   2.54714996e+01
   460.000   2.55936719e+01
   460.500   2.57168041e+01
   461.000   2.58409085e+01
   461.500   2.59659979e+01
   462.000   2.60920853e+01
   462.500   2.62191840e+01
   463.000   2.63473076e+01
   463.500   2.64764701e+01
   464.000   2.66066856e+01
   464.500   2.67379689e+01
   465.000   2.68703348e+01
   465.500   2.70037985e+01
   466.000   2.71383758e+01
   466.500   2.72740826e+01
   467.000   2.74109354e+01
   467.500   2.75489510e+01
   468.000   2.76881465e+01
   468.500   2.78285395e+01
   469.000   2.79701482e+01
   469.500   2.81129908e+01
   470.000   2.82570864e+01
   470.500   2.84024542e+01
   471.000   2.85491140e+01
   471.500   2.86970860e+01
   472.000   2.88463908e+01
   472.500   2.89970495e+01
   473.000   2.91490838e+01
   473.500   2.93025157e+01
   474.000   2.94573676e+01
   474.500   2.96136625e+01
   475.000   2.97714240e+01
   475.500   2.99306758e+01
   476.000   3.00914423e+01
   476.500   3.02537485e+01
   477.000   3.04176197e+01
   477.500   3.05830816e+01
   478.000   3.07501604e+01
   478.500   3.09188830e+01
   479.000   3.10892765e+01
   479.500   3.12613685e+01
   480.000   3.14351872e+01
   480.500   3.16107612e+01
   481.000   3.17881194e+01
   481.500   3.19672914e+01
   482.000   3.21483070e+01
   482.500   3.23311966e+01
   483.000   3.25159910e+01
   483.500   3.27027215e+01
   484.000   3.28914195e+01
   484.500   3.30821173e+01
   485.000   3.32748472e+01
   485.500   3.34696420e+01
   486.000   3.36665351e+01
   486.500   3.38655599e+01
   487.000   3.40667505e+01
   487.500   3.42701411e+01
   488.000   3.44757664e+01
   488.500   3.46836613e+01
   489.000   3.48938610e+01
   489.500   3.51064010e+01
   490.000   3.53213171e+01
   490.500   3.55386451e+01
   491.000   3.57584213e+01
   491.500   3.59806820e+01
   492.000   3.62054635e+01
   492.500   3.64328025e+01
   493.000   3.66627354e+01
   493.500   3.68952990e+01
   494.000   3.71305296e+01
   494.500   3.73684639e+01
   495.000   3.76091381e+01
   495.500   3.78525882e+01
   496.000   3.80988503e+01
   496.500   3.83479597e+01
   497.000   3.85999516e+01
   497.500   3.88548606e+01
   498.000   3.91127207e+01
   498.500   3.93735654e+01
   499.000   3.96374271e+01
   499.500   3.99043377e+01
   500.000   4.01743279e+01
   500.500   4.04474275e+01
   501.000   4.07236648e+01
   501.500   4.10030670e+01
   502.000   4.12856598e+01
   502.500   4.15714671e+01
   503.000   4.18605112e+01
   503.500   4.21528122e+01
   504.000   4.24483882e+01
   504.500   4.27472552e+01
   505.000   4.30494263e+01
   505.500   4.33549122e+01
   506.000   4.36637206e+01
   506.500   4.39758560e+01
   507.000   4.42913196e+01
   507.500   4.46101090e+01
   508.000   4.49322180e+01
   508.500   4.52576363e+01
   509.000   4.55863493e+01
   509.500   4.59183377e+01
   510.000   4.62535775e+01
   510.500   4.65920392e+01
   511.000   4.69336882e+01
   511.500   4.72784841e+01
   512.000   4.76263805e+01
   512.500   4.79773245e+01
   513.000   4.83312568e+01
   513.500   4.86881114e+01
   514.000   4.90478147e+01
   514.500   4.94102860e+01
   515.000   4.97754368e+01
   515.500   5.01431707e+01
   516.000   5.05133829e+01
   516.500   5.08859605e+01
   517.000   5.12607816e+01
   517.500   5.16377157e+01
   518.000   5.20166233e+01
   518.500   5.23973557e+01
   519.000   5.27797549e+01
   519.500   5.31636538e+01
   520.000   5.35488758e+01
   520.500   5.39352351e+01
   521.000   5.43225366e+01
   521.500   5.47105762e+01
   522.000   5.50991408e+01
   522.500   5.54880084e+01
   523.000   5.58769488e+01
   523.500   5.62657236e+01
   524.000   5.66540868e+01
   524.500   5.70417850e+01
   525.000   5.74285586e+01
   525.500   5.78141415e+01
   526.000   5.81982627e+01
   526.500   5.85806464e+01
   527.000   5.89610133e+01
   527.500   5.93390810e+01
   528.000   5.97145655e+01
   528.500   6.00871821e+01
   529.000   6.04566460e+01
   529.500   6.08226741e+01
   530.000   6.11849859e+01
   530.500   6.15433046e+01
   531.000   6.18973584e+01
   531.500   6.22468820e+01
   532.000   6.25916174e+01
   532.500   6.29313158e+01
   533.000   6.32657383e+01
   533.500   6.35946573e+01
   534.000   6.39178579e+01
   534.500   6.42351389e+01
   535.000   6.45463139e+01
   535.500   6.48512122e+01
   536.000   6.51496799e+01
   536.500   6.54415810e+01
   537.000   6.57267975e+01
   537.500   6.60052308e+01
   538.000   6.62768016e+01
   538.500   6.65414506e+01
   539.000   6.67991390e+01
   539.500   6.70498481e+01
   540.000   6.72935797e+01
   540.500   6.75303560e+01
   541.000   6.77602192e+01
   541.500   6.79832310e+01
   542.000   6.81994725e+01
   542.500   6.84090431e+01
   543.000   6.86120600e+01
   543.500   6.88086575e+01
   544.000   6.89989856e+01
   544.500   6.91832092e+01
   545.000   6.93615073e+01
   545.500   6.95340712e+01
   546.000   6.97011037e+01
   546.500   6.98628176e+01
   547.000   7.00194346e+01
   547.500   7.01711836e+01
   548.000   7.03182998e+01
   548.500   7.04610230e+01
   549.000   7.05995967e+01
   549.500   7.07342661e+01
   550.000   7.08652777e+01
   550.500   7.09928774e+01
   551.000   7.11173096e+01
   551.500   7.12388164e+01
   552.000   7.13576359e+01
   552.500   7.14740017e+01
   553.000   7.15881422e+01
   553.500   7.17002790e+01
   554.000   7.18106273e+01
   554.500   7.19193941e+01
   555.000   7.20267787e+01
   555.500   7.21329714e+01
   556.000   7.22381537e+01
   556.500   7.23424977e+01
   557.000   7.24461662e+01
   557.500   7.25493123e+01
   558.000   7.26520793e+01
   558.500   7.27546013e+01
   559.000   7.28570027e+01
   559.500   7.29593985e+01
   560.000   7.30618952e+01
   560.500   7.31645900e+01
   561.000   7.32675724e+01
   561.500   7.33709235e+01
   562.000   7.34747173e+01
   562.500   7.35790209e+01
   563.000   7.36838949e+01
   563.500   7.37893943e+01
   564.000   7.38955688e+01
   564.500   7.40024637e+01
   565.000   7.41101202e+01
   565.500   7.42185762e+01
   566.000   7.43278670e+01
   566.500   7.44380259e+01
   567.000   7.45490845e+01
   567.500   7.46610737e+01
   568.000   7.47740241e+01
   568.500   7.48879663e+01
   569.000   7.50029318e+01
   569.500   7.51189531e+01
   570.000   7.52360646e+01
   570.500   7.53543024e+01
   571.000   7.54737051e+01
   571.500   7.55943136e+01
   572.000   7.57161720e+01
   572.500   7.58393273e+01
   573.000   7.59638298e+01
   573.500   7.60897330e+01
   574.000   7.62170938e+01
   574.500   7.63459725e+01
   575.000   7.64764328e+01
   575.500   7.66085417e+01
   576.000   7.67423693e+01
   576.500   7.68779889e+01
   577.000   7.70154766e+01
   577.500   7.71549112e+01
   578.000   7.72963741e+01
   578.500   7.74399488e+01
   579.000   7.75857209e+01
   579.500   7.77337777e+01
   580.000   7.78842081e+01
   580.500   7.80371020e+01
   581.000   7.81925503e+01
   581.500   7.83506446e+01
   582.000   7.85114767e+01
   582.500   7.86751388e+01
   583.000   7.88417227e+01
   583.500   7.90113198e+01
   584.000   7.91840209e+01
   584.500   7.93599161e+01
   585.000   7.95390941e+01
   585.500   7.97216426e+01
   586.000   7.99076479e+01
   586.500   8.00971945e+01
   587.000   8.02903655e+01
   587.500   8.04872418e+01
   588.000   8.06879025e+01
   588.500   8.08924249e+01
   589.000   8.11008840e+01
   589.500   8.13133525e+01
   590.000   8.15299012e+01
   590.500   8.17505986e+01
   591.000   8.19755110e+01
   591.500   8.22047024e+01
   592.000   8.24382347e+01
   592.500   8.26761675e+01
   593.000   8.29185586e+01
   593.500   8.31654633e+01
   594.000   8.34169351e+01
   594.500   8.36730255e+01
   595.000   8.39337841e+01
   595.500   8.41992587e+01
   596.000   8.44694952e+01
   596.500   8.47445379e+01
   597.000   8.50244297e+01
   597.500   8.53092118e+01
   598.000   8.55989240e+01
   598.500   8.58936047e+01
   599.000   8.61932914e+01
   599.500   8.64980201e+01
   600.000   8.68078260e+01
   600.500   8.71227431e+01
   601.000   8.74428047e+01
   601.500   8.77680433e+01
   602.000   8.80984908e+01
   602.500   8.84341782e+01
   603.000   8.87751362e+01
   603.500   8.91213951e+01
   604.000   8.94729846e+01
   604.500   8.98299344e+01
   605.000   9.01922737e+01
   605.500   9.05600318e+01
   606.000   9.09332378e+01
   606.500   9.13119209e+01
   607.000   9.16961101e+01
   607.500   9.20858348e+01
   608.000   9.24811246e+01
   608.500   9.28820091e+01
   609.000   9.32885184e+01
   609.500   9.37006828e+01
   610.000   9.41185332e+01
   610.500   9.45421008e+01
   611.000   9.49714174e+01
   611.500   9.54065152e+01
   612.000   9.58474271e+01
   612.500   9.62941867e+01
   613.000   9.67468281e+01
   613.500   9.72053863e+01
   614.000   9.76698968e+01
   614.500   9.81403961e+01
   615.000   9.86169215e+01
   615.500   9.90995110e+01
   616.000   9.95882037e+01
   616.500   1.00083039e+02
   617.000   1.00584059e+02
   617.500   1.01091304e+02
   618.000   1.01604818e+02
   618.500   1.02124644e+02
   619.000   1.02650827e+02
   619.500   1.03183414e+02
   620.000   1.03722450e+02
   620.500   1.04267985e+02
   621.000   1.04820068e+02
   621.500   1.05378749e+02
   622.000   1.05944081e+02
   622.500   1.06516115e+02
   623.000   1.07094906e+02
   623.500   1.07680510e+02
   624.000   1.08272983e+02
   624.500   1.08872383e+02
   625.000   1.09478771e+02
   625.500   1.10092205e+02
   626.000   1.10712749e+02
   626.500   1.11340466e+02
   627.000   1.11975421e+02
   627.500   1.12617680e+02
   628.000   1.13267312e+02
   628.500   1.13924384e+02
   629.000   1.14588969e+02
   629.500   1.15261138e+02
   630.000   1.15940965e+02
   630.500   1.16628526e+02
   631.000   1.17323897e+02
   631.500   1.18027159e+02
   632.000   1.18738389e+02
   632.500   1.19457672e+02
   633.000   1.20185089e+02
   633.500   1.20920728e+02
   634.000   1.21664674e+02
   634.500   1.22417017e+02
   635.000   1.23177847e+02
   635.500   1.23947257e+02
   636.000   1.24725342e+02
   636.500   1.25512197e+02
   637.000   1.26307921e+02
   637.500   1.27112614e+02
   638.000   1.27926378e+02
   638.500   1.28749317e+02
   639.000   1.29581537e+02
   639.500   1.30423146e+02
   640.000   1.31274256e+02
   640.500   1.32134977e+02
   641.000   1.33005426e+02
   641.500   1.33885718e+02
   642.000   1.34775973e+02
   642.500   1.35676312e+02
   643.000   1.36586859e+02
   643.500   1.37507740e+02
   644.000   1.38439083e+02
   644.500   1.39381019e+02
   645.000   1.40333682e+02
   645.500   1.41297208e+02
   646.000   1.42271734e+02
   646.500   1.43257403e+02
   647.000   1.44254358e+02
   647.500   1.45262745e+02
   648.000   1.46282713e+02
   648.500   1.47314416e+02
   649.000   1.48358006e+02
   649.500   1.49413643e+02
   650.000   1.50481487e+02
   650.500   1.51561703e+02
   651.000   1.52654455e+02
   651.500   1.53759916e+02
   652.000   1.54878257e+02
   652.500   1.56009656e+02
   653.000   1.57154292e+02
   653.500   1.58312348e+02
   654.000   1.59484011e+02
   654.500   1.60669470e+02
   655.000   1.61868920e+02
   655.500   1.63082557e+02
   656.000   1.64310582e+02
   656.500   1.65553200e+02
   657.000   1.66810620e+02
   657.500   1.68083053e+02
   658.000   1.69370717e+02
   658.500   1.70673831e+02
   659.000   1.71992620e+02
   659.500   1.73327313e+02
   660.000   1.74678143e+02
   660.500   1.76045348e+02
   661.000   1.77429168e+02
   661.500   1.78829851e+02
   662.000   1.80247648e+02
   662.500   1.81682814e+02
   663.000   1.83135610e+02
   663.500   1.84606301e+02
   664.000   1.86095158e+02
   664.500   1.87602456e+02
   665.000   1.89128477e+02
   665.500   1.90673505e+02
   666.000   1.92237833e+02
   666.500   1.93821756e+02
   667.000   1.95425578e+02
   667.500   1.97049607e+02
   668.000   1.98694156e+02
   668.500   2.00359545e+02
   669.000   2.02046100e+02
   669.500   2.03754153e+02
   670.000   2.05484041e+02
   670.500   2.07236110e+02
   671.000   2.09010710e+02
   671.500   2.10808198e+02
   672.000   2.12628938e+02
   672.500   2.14473302e+02
   673.000   2.16341668e+02
   673.500   2.18234419e+02
   674.000   2.20151949e+02
   674.500   2.22094656e+02
   675.000   2.24062947e+02
   675.500   2.26057237e+02
   676.000   2.28077947e+02
   676.500   2.30125507e+02
   677.000   2.32200355e+02
   677.500   2.34302936e+02
   678.000   2.36433704e+02
   678.500   2.38593121e+02
   679.000   2.40781657e+02
   679.500   2.42999793e+02
   680.000   2.45248014e+02
   680.500   2.47526819e+02
   681.000   2.49836712e+02
   681.500   2.52178209e+02
   682.000   2.54551831e+02
   682.500   2.56958114e+02
   683.000   2.59397599e+02
   683.500   2.61870838e+02
   684.000   2.64378393e+02
   684.500   2.66920835e+02
   685.000   2.69498747e+02
   685.500   2.72112718e+02
   686.000   2.74763353e+02
   686.500   2.77451261e+02
   687.000   2.80177066e+02
   687.500   2.82941400e+02
   688.000   2.85744908e+02
   688.500   2.88588244e+02
   689.000   2.91472072e+02
   689.500   2.94397069e+02
   690.000   2.97363923e+02
   690.500   3.00373333e+02
   691.000   3.03426007e+02
   691.500   3.06522669e+02
   692.000   3.09664050e+02
   692.500   3.12850897e+02
   693.000   3.16083964e+02
   693.500   3.19364022e+02
   694.000   3.22691851e+02
   694.500   3.26068245e+02
   695.000   3.29494008e+02
   695.500   3.32969960e+02
   696.000   3.36496931e+02
   696.500   3.40075765e+02
   697.000   3.43707321e+02
   697.500   3.47392467e+02
   698.000   3.51132090e+02
   698.500   3.54927086e+02
   699.000   3.58778369e+02
   699.500   3.62686865e+02
   700.000   3.66653517e+02
   700.500   3.70679281e+02
   701.000   3.74765131e+02
   701.500   3.78912055e+02
   702.000   3.83121057e+02
   702.500   3.87393162e+02
   703.000   3.91729408e+02
   703.500   3.96130853e+02
   704.000   4.00598574e+02
   704.500   4.05133669e+02
   705.000   4.09737252e+02
   705.500   4.14410462e+02
   706.000   4.19154458e+02
   706.500   4.23970422e+02
   707.000   4.28859559e+02
   707.500   4.33823101e+02
   708.000   4.38862303e+02
   708.500   4.43978447e+02
   709.000   4.49172844e+02
   709.500   4.54446834e+02
   710.000   4.59801786e+02
   710.500   4.65239100e+02
   711.000   4.70760211e+02
   711.500   4.76366586e+02
   712.000   4.82059728e+02
   712.500   4.87841174e+02
   713.000   4.93712501e+02
   713.500   4.99675326e+02
   714.000   5.05731302e+02
   714.500   5.11882126e+02
   715.000   5.18129537e+02
   715.500   5.24475317e+02
   716.000   5.30921292e+02
   716.500   5.37469333e+02
   717.000   5.44121357e+02
   717.500   5.50879328e+02
   718.000   5.57745257e+02
   718.500   5.64721202e+02
   719.000   5.71809267e+02
   719.500   5.79011607e+02
   720.000   5.86330422e+02
   720.500   5.93767960e+02
   721.000   6.01326516e+02
   721.500   6.09008430e+02
   722.000   6.16816088e+02
   722.500   6.24751920e+02
   723.000   6.32818399e+02
   723.500   6.41018036e+02
   724.000   6.49353385e+02
   724.500   6.57827034e+02
   725.000   6.66441608e+02
   725.500   6.75199763e+02
   726.000   6.84104183e+02
   726.500   6.93157579e+02
   727.000   7.02362685e+02
   727.500   7.11722254e+02
   728.000   7.21239053e+02
   728.500   7.30915859e+02
   729.000   7.40755456e+02
   729.500   7.50760630e+02
   730.000   7.60934160e+02
   730.500   7.71278818e+02
   731.000   7.81797357e+02
   731.500   7.92492512e+02
   732.000   8.03366985e+02
   732.500   8.14423446e+02
   733.000   8.25664517e+02
   733.500   8.37092774e+02
   734.000   8.48710728e+02
   734.500   8.60520826e+02
   735.000   8.72525432e+02
   735.500   8.84726827e+02
   736.000   8.97127190e+02
   736.500   9.09728592e+02
   737.000   9.22532982e+02
   737.500   9.35542177e+02
   738.000   9.48757846e+02
   738.500   9.62181501e+02
   739.000   9.75814477e+02
   739.500   9.89657923e+02
   740.000   1.00371278e+03
   740.500   1.01797977e+03
   741.000   1.03245938e+03
   741.500   1.04715184e+03
   742.000   1.06205709e+03
   742.500   1.07717481e+03
   743.000   1.09250434e+03
   743.500   1.10804468e+03
   744.000   1.12379449e+03
   744.500   1.13975205e+03
   745.000   1.15591524e+03
   745.500   1.17228150e+03
   746.000   1.18884783e+03
   746.500   1.20561075e+03
   747.000   1.22256630e+03
   747.500   1.23970998e+03
   748.000   1.25703673e+03
   748.500   1.27454093e+03
   749.000   1.29221635e+03
   749.500   1.31005614e+03
   750.000   1.32805279e+03
   750.500   1.34619811e+03
   751.000   1.36448322e+03
   751.500   1.38289849e+03
   752.000   1.40143356e+03
   752.500   1.42007730e+03
   753.000   1.43881779e+03
   753.500   1.45764230e+03
   754.000   1.47653728e+03
   754.500   1.49548834e+03
   755.000   1.51448025e+03
   755.500   1.53349693e+03
   756.000   1.55252144e+03
   756.500   1.57153599e+03
   757.000   1.59052193e+03
   757.500   1.60945979e+03
   758.000   1.62832923e+03
   758.500   1.64710915e+03
   759.000   1.66577763e+03
   759.500   1.68431200e+03
   760.000   1.70268888e+03
   760.500   1.72088420e+03
   761.000   1.73887326e+03
   761.500   1.75663080e+03
   762.000   1.77413102e+03
   762.500   1.79134770e+03
   763.000   1.80825422e+03
   763.500   1.82482369e+03
   764.000   1.84102901e+03
   764.500   1.85684294e+03
   765.000   1.87223826e+03
   765.500   1.88718781e+03
   766.000   1.90166465e+03
   766.500   1.91564212e+03
   767.000   1.92909399e+03
   767.500   1.94199457e+03
   768.000   1.95431882e+03
   768.500   1.96604247e+03
   769.000   1.97714217e+03
   769.500   1.98759554e+03
   770.000   1.99738136e+03
   770.500   2.00647964e+03
   771.000   2.01487171e+03
   771.500   2.02254037e+03
   772.000   2.02946998e+03
   772.500   2.03564649e+03
   773.000   2.04105758e+03
   773.500   2.04569272e+03
   774.000   2.04954320e+03
   774.500   2.05260223e+03
   775.000   2.05486490e+03
   775.500   2.05632831e+03
   776.000   2.05699150e+03
   776.500   2.05685548e+03
   777.000   2.05592324e+03
   777.500   2.05419971e+03
   778.000   2.05169172e+03
   778.500   2.04840799e+03
   779.000   2.04435902e+03
   779.500   2.03955709e+03
   780.000   2.03401614e+03
   780.500   2.02775168e+03
   781.000   2.02078076e+03
   781.500   2.01312181e+03
   782.000   2.00479455e+03
   782.500   1.99581990e+03
   783.000   1.98621988e+03
   783.500   1.97601744e+03
   784.000   1.96523640e+03
   784.500   1.95390131e+03
   785.000   1.94203733e+03
   785.500   1.92967014e+03
   786.000   1.91682579e+03
   786.500   1.90353061e+03
   787.000   1.88981110e+03
   787.500   1.87569385e+03
   788.000   1.86120538e+03
   788.500   1.84637213e+03
   789.000   1.83122030e+03
   789.500   1.81577582e+03
   790.000   1.80006424e+03
   790.500   1.78411068e+03
   791.000   1.76793977e+03
   791.500   1.75157557e+03
   792.000   1.73504154e+03
   792.500   1.71836049e+03
   793.000   1.70155455e+03
   793.500   1.68464512e+03
   794.000   1.66765286e+03
   794.500   1.65059766e+03
   795.000   1.63349861e+03
   795.500   1.61637403e+03
   796.000   1.59924141e+03
   796.500   1.58211744e+03
   797.000   1.56501802e+03
   797.500   1.54795822e+03
   798.000   1.53095234e+03
   798.500   1.51401386e+03
   799.000   1.49715553e+03
   799.500   1.48038930e+03
   800.000   1.46372641e+03
   800.500   1.44717736e+03
   801.000   1.43075196e+03
   801.500   1.41445932e+03
   802.000   1.39830790e+03
   802.500   1.38230554e+03
   803.000   1.36645944e+03
   803.500   1.35077622e+03
   804.000   1.33526195e+03
   804.500   1.31992213e+03
   805.000   1.30476178e+03
   805.500   1.28978540e+03
   806.000   1.27499703e+03
   806.500   1.26040027e+03
   807.000   1.24599830e+03
   807.500   1.23179390e+03
   808.000   1.21778946e+03
   808.500   1.20398703e+03
   809.000   1.19038833e+03
   809.500   1.17699476e+03
   810.000   1.16380742e+03
   810.500   1.15082715e+03
   811.000   1.13805452e+03
   811.500   1.12548987e+03
   812.000   1.11313331e+03
   812.500   1.10098475e+03
   813.000   1.08904390e+03
   813.500   1.07731032e+03
   814.000   1.06578337e+03
   814.500   1.05446229e+03
   815.000   1.04334617e+03
   815.500   1.03243399e+03
   816.000   1.02172459e+03
   816.500   1.01121674e+03
   817.000   1.00090910e+03
   817.500   9.90800245e+02
   818.000   9.80888688e+02
   818.500   9.71172870e+02
   819.000   9.61651176e+02
   819.500   9.52321943e+02
   820.000   9.43183465e+02
   820.500   9.34234000e+02
   821.000   9.25471778e+02
   821.500   9.16895003e+02
   822.000   9.08501862e+02
   822.500   9.00290530e+02
   823.000   8.92259170e+02
   823.500   8.84405944e+02
   824.000   8.76729012e+02
   824.500   8.69226538e+02
   825.000   8.61896693e+02
   825.500   8.54737659e+02
   826.000   8.47747629e+02
   826.500   8.40924814e+02
   827.000   8.34267443e+02
   827.500   8.27773765e+02
   828.000   8.21442052e+02
   828.500   8.15270600e+02
   829.000   8.09257732e+02
   829.500   8.03401799e+02
   830.000   7.97701181e+02
   830.500   7.92154288e+02
   831.000   7.86759562e+02
   831.500   7.81515478e+02
   832.000   7.76420542e+02
   832.500   7.71473298e+02
   833.000   7.66672321e+02
   833.500   7.62016221e+02
   834.000   7.57503647e+02
   834.500   7.53133280e+02
   835.000   7.48903837e+02
   835.500   7.44814074e+02
   836.000   7.40862778e+02
   836.500   7.37048776e+02
   837.000   7.33370928e+02
   837.500   7.29828130e+02
   838.000   7.26419312e+02
   838.500   7.23143438e+02
   839.000   7.19999507e+02
   839.500   7.16986550e+02
   840.000   7.14103630e+02
   840.500   7.11349843e+02
   841.000   7.08724312e+02
   841.500   7.06226193e+02
   842.000   7.03854669e+02
   842.500   7.01608949e+02
   843.000   6.99488270e+02
   843.500   6.97491892e+02
   844.000   6.95619098e+02
   844.500   6.93869192e+02
   845.000   6.92241498e+02
   845.500   6.90735358e+02
   846.000   6.89350130e+02
   846.500   6.88085184e+02
   847.000   6.86939903e+02
   847.500   6.85913678e+02
   848.000   6.85005909e+02
   848.500   6.84215996e+02
   849.000   6.83543344e+02
   849.500   6.82987354e+02
   850.000   6.82547423e+02
   850.500   6.82222938e+02
   851.000   6.82013278e+02
   851.500   6.81917804e+02
   852.000   6.81935859e+02
   852.500   6.82066762e+02
   853.000   6.82309806e+02
   853.500   6.82664253e+02
   854.000   6.83129326e+02
   854.500   6.83704209e+02
   855.000   6.84388042e+02
   855.500   6.85179910e+02
   856.000   6.86078845e+02
   856.500   6.87083813e+02
   857.000   6.88193717e+02
   857.500   6.89407383e+02
   858.000   6.90723556e+02
   858.500   6.92140899e+02
   859.000   6.93657977e+02
   859.500   6.95273260e+02
   860.000   6.96985108e+02
   860.500   6.98791771e+02
   861.000   7.00691377e+02
   861.500   7.02681926e+02
   862.000   7.04761285e+02
   862.500   7.06927181e+02
   863.000   7.09177188e+02
   863.500   7.11508727e+02
   864.000   7.13919058e+02
   864.500   7.16405269e+02
   865.000   7.18964274e+02
   865.500   7.21592803e+02
   866.000   7.24287399e+02
   866.500   7.27044413e+02
   867.000   7.29859995e+02
   867.500   7.32730095e+02
   868.000   7.35650452e+02
   868.500   7.38616600e+02
   869.000   7.41623856e+02
   869.500   7.44667328e+02
   870.000   7.47741906e+02
   870.500   7.50842268e+02
   871.000   7.53962882e+02
   871.500   7.57098005e+02
   872.000   7.60241689e+02
   872.500   7.63387791e+02
   873.000   7.66529972e+02
   873.500   7.69661715e+02
   874.000   7.72776326e+02
   874.500   7.75866955e+02
   875.000   7.78926602e+02
   875.500   7.81948140e+02
   876.000   7.84924323e+02
   876.500   7.87847814e+02
   877.000   7.90711199e+02
   877.500   7.93507014e+02
   878.000   7.96227763e+02
   878.500   7.98865951e+02
   879.000   8.01414103e+02
   879.500   8.03864794e+02
   880.000   8.06210683e+02
   880.500   8.08444536e+02
   881.000   8.10559259e+02
   881.500   8.12547930e+02
   882.000   8.14403830e+02
   882.500   8.16120471e+02
   883.000   8.17691633e+02
   883.500   8.19111390e+02
   884.000   8.20374138e+02
   884.500   8.21474630e+02
   885.000   8.22407997e+02
   885.500   8.23169777e+02
   886.000   8.23755936e+02
   886.500   8.24162894e+02
   887.000   8.24387538e+02
   887.500   8.24427243e+02
   888.000   8.24279885e+02
   888.500   8.23943850e+02
   889.000   8.23418045e+02
   889.500   8.22701901e+02
   890.000   8.21795372e+02
   890.500   8.20698939e+02
   891.000   8.19413601e+02
   891.500   8.17940868e+02
   892.000   8.16282752e+02
   892.500   8.14441750e+02
   893.000   8.12420831e+02
   893.500   8.10223416e+02
   894.000   8.07853353e+02
   894.500   8.05314899e+02
   895.000   8.02612693e+02
   895.500   7.99751727e+02
   896.000   7.96737319e+02
   896.500   7.93575085e+02
   897.000   7.90270907e+02
   897.500   7.86830904e+02
   898.000   7.83261400e+02
   898.500   7.79568893e+02
   899.000   7.75760028e+02
   899.500   7.71841560e+02
   900.000   7.67820331e+02
   900.500   7.63703238e+02
   901.000   7.59497209e+02
   901.500   7.55209170e+02
   902.000   7.50846030e+02
   902.500   7.46414646e+02
   903.000   7.41921813e+02
   903.500   7.37374232e+02
   904.000   7.32778502e+02
   904.500   7.28141093e+02
   905.000   7.23468339e+02
   905.500   7.18766418e+02
   906.000   7.14041345e+02
   906.500   7.09298955e+02
   907.000   7.04544903e+02
   907.500   6.99784646e+02
   908.000   6.95023445e+02
   908.500   6.90266358e+02
   909.000   6.85518234e+02
   909.500   6.80783715e+02
   910.000   6.76067231e+02
   910.500   6.71373002e+02
   911.000   6.66705038e+02
   911.500   6.62067142e+02
   912.000   6.57462912e+02
   912.500   6.52895741e+02
   913.000   6.48368827e+02
   913.500   6.43885171e+02
   914.000   6.39447586e+02
   914.500   6.35058702e+02
   915.000   6.30720969e+02
   915.500   6.26436663e+02
   916.000   6.22207896e+02
   916.500   6.18036618e+02
   917.000   6.13924625e+02
   917.500   6.09873566e+02
   918.000   6.05884948e+02
   918.500   6.01960142e+02
   919.000   5.98100393e+02
   919.500   5.94306824e+02
   920.000   5.90580439e+02
   920.500   5.86922135e+02
   921.000   5.83332707e+02
   921.500   5.79812848e+02
   922.000   5.76363164e+02
   922.500   5.72984172e+02
   923.000   5.69676308e+02
   923.500   5.66439935e+02
   924.000   5.63275344e+02
   924.500   5.60182761e+02
   925.000   5.57162350e+02
   925.500   5.54214222e+02
   926.000   5.51338432e+02
   926.500   5.48534991e+02
   927.000   5.45803863e+02
   927.500   5.43144976e+02
   928.000   5.40558218e+02
   928.500   5.38043446e+02
   929.000   5.35600486e+02
   929.500   5.33229139e+02
   930.000   5.30929182e+02
   930.500   5.28700369e+02
   931.000   5.26542439e+02
   931.500   5.24455112e+02
   932.000   5.22438098e+02
   932.500   5.20491093e+02
   933.000   5.18613785e+02
   933.500   5.16805855e+02
   934.000   5.15066977e+02
   934.500   5.13396823e+02
   935.000   5.11795063e+02
   935.500   5.10261366e+02
   936.000   5.08795401e+02
   936.500   5.07396842e+02
   937.000   5.06065364e+02
   937.500   5.04800647e+02
   938.000   5.03602378e+02
   938.500   5.02470250e+02
   939.000   5.01403964e+02
   939.500   5.00403230e+02
   940.000   4.99467767e+02
   940.500   4.98597305e+02
   941.000   4.97791584e+02
   941.500   4.97050356e+02
   942.000   4.96373387e+02
   942.500   4.95760454e+02
   943.000   4.95211348e+02
   943.500   4.94725875e+02
   944.000   4.94303854e+02
   944.500   4.93945120e+02
   945.000   4.93649524e+02
   945.500   4.93416931e+02
   946.000   4.93247223e+02
   946.500   4.93140300e+02
   947.000   4.93096076e+02
   947.500   4.93114485e+02
   948.000   4.93195475e+02
   948.500   4.93339016e+02
   949.000   4.93545092e+02
   949.500   4.93813708e+02
   950.000   4.94144886e+02
   950.500   4.94538666e+02
   951.000   4.94995108e+02
   951.500   4.95514291e+02
   952.000   4.96096313e+02
   952.500   4.96741290e+02
   953.000   4.97449361e+02
   953.500   4.98220680e+02
   954.000   4.99055425e+02
   954.500   4.99953791e+02
   955.000   5.00915995e+02
   955.500   5.01942273e+02
   956.000   5.03032883e+02
   956.500   5.04188101e+02
   957.000   5.05408226e+02
   957.500   5.06693577e+02
   958.000   5.08044492e+02
   958.500   5.09461333e+02
   959.000   5.10944481e+02
   959.500   5.12494338e+02
   960.000   5.14111329e+02
   960.500   5.15795899e+02
   961.000   5.17548513e+02
   961.500   5.19369659e+02
   962.000   5.21259848e+02
   962.500   5.23219609e+02
   963.000   5.25249494e+02
   963.500   5.27350079e+02
   964.000   5.29521958e+02
   964.500   5.31765748e+02
   965.000   5.34082088e+02
   965.500   5.36471639e+02
   966.000   5.38935081e+02
   966.500   5.41473120e+02
   967.000   5.44086478e+02
   967.500   5.46775904e+02
   968.000   5.49542163e+02
   968.500   5.52386046e+02
   969.000   5.55308361e+02
   969.500   5.58309940e+02
   970.000   5.61391635e+02
   970.500   5.64554316e+02
   971.000   5.67798877e+02
   971.500   5.71126230e+02
   972.000   5.74537307e+02
   972.500   5.78033061e+02
   973.000   5.81614461e+02
   973.500   5.85282497e+02
   974.000   5.89038178e+02
   974.500   5.92882530e+02
   975.000   5.96816596e+02
   975.500   6.00841436e+02
   976.000   6.04958127e+02
   976.500   6.09167762e+02
   977.000   6.13471449e+02
   977.500   6.17870309e+02
   978.000   6.22365480e+02
   978.500   6.26958110e+02
   979.000   6.31649362e+02
   979.500   6.36440407e+02
   980.000   6.41332430e+02
   980.500   6.46326625e+02
   981.000   6.51424193e+02
   981.500   6.56626344e+02
   982.000   6.61934296e+02
   982.500   6.67349271e+02
   983.000   6.72872497e+02
   983.500   6.78505205e+02
   984.000   6.84248629e+02
   984.500   6.90104004e+02
   985.000   6.96072566e+02
   985.500   7.02155552e+02
   986.000   7.08354193e+02
   986.500   7.14669722e+02
   987.000   7.21103365e+02
   987.500   7.27656344e+02
   988.000   7.34329876e+02
   988.500   7.41125170e+02
   989.000   7.48043427e+02
   989.500   7.55085842e+02
   990.000   7.62253599e+02
   990.500   7.69547871e+02
   991.000   7.76969822e+02
   991.500   7.84520605e+02
   992.000   7.92201361e+02
   992.500   8.00013220e+02
   993.000   8.07957299e+02
   993.500   8.16034702e+02
   994.000   8.24246525e+02
   994.500   8.32593848e+02
   995.000   8.41077740e+02
   995.500   8.49699260e+02
   996.000   8.58459455e+02
   996.500   8.67359360e+02
   997.000   8.76400002e+02
   997.500   8.85582397e+02
   998.000   8.94907551e+02
   998.500   9.04376462e+02
   999.000   9.13990119e+02
   999.500   9.23749501e+02
  1000.000   9.33655582e+02
  1000.500   9.43709324e+02
  1001.000   9.53911681e+02
  1001.500   9.64263597e+02
  1002.000   9.74766006e+02
  1002.500   9.85419829e+02
  1003.000   9.96225972e+02
  1003.500   1.00718532e+03
  1004.000   1.01829875e+03
  1004.500   1.02956710e+03
  1005.000   1.04099118e+03
  1005.500   1.05257177e+03
  1006.000   1.06430961e+03
  1006.500   1.07620539e+03
  1007.000   1.08825974e+03
  1007.500   1.10047322e+03
  1008.000   1.11284633e+03
  1008.500   1.12537944e+03
  1009.000   1.13807287e+03
  1009.500   1.15092678e+03
  1010.000   1.16394122e+03
  1010.500   1.17711609e+03
  1011.000   1.19045112e+03
  1011.500   1.20394585e+03
  1012.000   1.21759963e+03
  1012.500   1.23141157e+03
  1013.000   1.24538052e+03
  1013.500   1.25950509e+03
  1014.000   1.27378357e+03
  1014.500   1.28821393e+03
  1015.000   1.30279381e+03
  1015.500   1.31752046e+03
  1016.000   1.33239073e+03
  1016.500   1.34740106e+03
  1017.000   1.36254741e+03
  1017.500   1.37782530e+03
  1018.000   1.39322969e+03
  1018.500   1.40875504e+03
  1019.000   1.42439524e+03
  1019.500   1.44014360e+03
  1020.000   1.45599281e+03
  1020.500   1.47193491e+03
  1021.000   1.48796132e+03
  1021.500   1.50406276e+03
  1022.000   1.52022926e+03
  1022.500   1.53645013e+03
  1023.000   1.55271399e+03
  1023.500   1.56900868e+03
  1024.000   1.58532133e+03
  1024.500   1.60163831e+03
  1025.000   1.61794527e+03
  1025.500   1.63422707e+03
  1026.000   1.65046789e+03
  1026.500   1.66665114e+03
  1027.000   1.68275957e+03
  1027.500   1.69877521e+03
  1028.000   1.71467946e+03
  1028.500   1.73045308e+03
  1029.000   1.74607627e+03
  1029.500   1.76152868e+03
  1030.000   1.77678946e+03
  1030.500   1.79183734e+03
  1031.000   1.80665068e+03
  1031.500   1.82120753e+03
  1032.000   1.83548570e+03
  1032.500   1.84946286e+03
  1033.000   1.86311661e+03
  1033.500   1.87642455e+03
  1034.000   1.88936440e+03
  1034.500   1.90191407e+03
  1035.000   1.91405180e+03
  1035.500   1.92575618e+03
  1036.000   1.93700636e+03
  1036.500   1.94778206e+03
  1037.000   1.95806372e+03
  1037.500   1.96783259e+03
  1038.000   1.97707084e+03
  1038.500   1.98576166e+03
  1039.000   1.99388933e+03
  1039.500   2.00143934e+03
  1040.000   2.00839845e+03
  1040.500   2.01475480e+03
  1041.000   2.02049796e+03
  1041.500   2.02561900e+03
  1042.000   2.03011055e+03
  1042.500   2.03396683e+03
  1043.000   2.03718373e+03
  1043.500   2.03975878e+03
  1044.000   2.04169123e+03
  1044.500   2.04298200e+03
  1045.000   2.04363372e+03
  1045.500   2.04365069e+03
  1046.000   2.04303886e+03
  1046.500   2.04180583e+03
  1047.000   2.03996076e+03
  1047.500   2.03751432e+03
  1048.000   2.03447869e+03
  1048.500   2.03086742e+03
  1049.000   2.02669537e+03
  1049.500   2.02197868e+03
  1050.000   2.01673460e+03
  1050.500   2.01098147e+03
  1051.000   2.00473859e+03
  1051.500   1.99802610e+03
  1052.000   1.99086494e+03
  1052.500   1.98327670e+03
  1053.000   1.97528353e+03
  1053.500   1.96690803e+03
  1054.000   1.95817319e+03
  1054.500   1.94910222e+03
  1055.000   1.93971854e+03
  1055.500   1.93004560e+03
  1056.000   1.92010688e+03
  1056.500   1.90992573e+03
  1057.000   1.89952533e+03
  1057.500   1.88892861e+03
  1058.000   1.87815817e+03
  1058.500   1.86723622e+03
  1059.000   1.85618452e+03
  1059.500   1.84502434e+03
  1060.000   1.83377637e+03
  1060.500   1.82246073e+03
  1061.000   1.81109687e+03
  1061.500   1.79970360e+03
  1062.000   1.78829901e+03
  1062.500   1.77690047e+03
  1063.000   1.76552459e+03
  1063.500   1.75418723e+03
  1064.000   1.74290345e+03
  1064.500   1.73168756e+03
  1065.000   1.72055303e+03
  1065.500   1.70951256e+03
  1066.000   1.69857804e+03
  1066.500   1.68776056e+03
  1067.000   1.67707042e+03
  1067.500   1.66651713e+03
  1068.000   1.65610941e+03
  1068.500   1.64585521e+03
  1069.000   1.63576172e+03
  1069.500   1.62583538e+03
  1070.000   1.61608187e+03
  1070.500   1.60650615e+03
  1071.000   1.59711247e+03
  1071.500   1.58790437e+03
  1072.000   1.57888471e+03
  1072.500   1.57005566e+03
  1073.000   1.56141874e+03
  1073.500   1.55297483e+03
  1074.000   1.54472418e+03
  1074.500   1.53666641e+03
  1075.000   1.52880056e+03
  1075.500   1.52112508e+03
  1076.000   1.51363785e+03
  1076.500   1.50633621e+03
  1077.000   1.49921695e+03
  1077.500   1.49227636e+03
  1078.000   1.48551022e+03
  1078.500   1.47891384e+03
  1079.000   1.47248207e+03
  1079.500   1.46620929e+03
  1080.000   1.46008950e+03
  1080.500   1.45411626e+03
  1081.000   1.44828279e+03
  1081.500   1.44258193e+03
  1082.000   1.43700619e+03
  1082.500   1.43154779e+03
  1083.000   1.42619865e+03
  1083.500   1.42095047e+03
  1084.000   1.41579470e+03
  1084.500   1.41072261e+03
  1085.000   1.40572531e+03
  1085.500   1.40079379e+03
  1086.000   1.39591894e+03
  1086.500   1.39109157e+03
  1087.000   1.38630251e+03
  1087.500   1.38154256e+03
  1088.000   1.37680260e+03
  1088.500   1.37207356e+03
  1089.000   1.36734653e+03
  1089.500   1.36261274e+03
  1090.000   1.35786362e+03
  1090.500   1.35309081e+03
  1091.000   1.34828626e+03
  1091.500   1.34344218e+03
  1092.000   1.33855114e+03
  1092.500   1.33360605e+03
  1093.000   1.32860024e+03
  1093.500   1.32352745e+03
  1094.000   1.31838186e+03
  1094.500   1.31315811e+03
  1095.000   1.30785136e+03
  1095.500   1.30245723e+03
  1096.000   1.29697189e+03
  1096.500   1.29139202e+03
  1097.000   1.28571484e+03
  1097.500   1.27993810e+03
  1098.000   1.27406009e+03
  1098.500   1.26807965e+03
  1099.000   1.26199611e+03
  1099.500   1.25580935e+03
  1100.000   1.24951975e+03
  1100.500   1.24312818e+03
  1101.000   1.23663597e+03
  1101.500   1.23004493e+03
  1102.000   1.22335728e+03
  1102.500   1.21657566e+03
  1103.000   1.20970309e+03
  1103.500   1.20274293e+03
  1104.000   1.19569889e+03
  1104.500   1.18857499e+03
  1105.000   1.18137548e+03
  1105.500   1.17410489e+03
  1106.000   1.16676795e+03
  1106.500   1.15936957e+03
  1107.000   1.15191483e+03
  1107.500   1.14440893e+03
  1108.000   1.13685718e+03
  1108.500   1.12926496e+03
  1109.000   1.12163772e+03
  1109.500   1.11398093e+03
  1110.000   1.10630006e+03
  1110.500   1.09860059e+03
  1111.000   1.09088796e+03
  1111.500   1.08316758e+03
  1112.000   1.07544478e+03
  1112.500   1.06772482e+03
  1113.000   1.06001288e+03
  1113.500   1.05231404e+03
  1114.000   1.04463326e+03
  1114.500   1.03697539e+03
  1115.000   1.02934516e+03
  1115.500   1.02174716e+03
  1116.000   1.01418585e+03
  1116.500   1.00666555e+03
  1117.000   9.99190421e+02
  1117.500   9.91764486e+02
  1118.000   9.84391618e+02
  1118.500   9.77075534e+02
  1119.000   9.69819800e+02
  1119.500   9.62627828e+02
  1120.000   9.55502873e+02
  1120.500   9.48448039e+02
  1121.000   9.41466273e+02
  1121.500   9.34560369e+02
  1122.000   9.27732969e+02
  1122.500   9.20986563e+02
  1123.000   9.14323489e+02
  1123.500   9.07745935e+02
  1124.000   9.01255941e+02
  1124.500   8.94855399e+02
  1125.000   8.88546054e+02
  1125.500   8.82329508e+02
  1126.000   8.76207218e+02
  1126.500   8.70180497e+02
  1127.000   8.64250519e+02
  1127.500   8.58418318e+02
  1128.000   8.52684788e+02
  1128.500   8.47050687e+02
  1129.000   8.41516636e+02
  1129.500   8.36083122e+02
  1130.000   8.30750497e+02
  1130.500   8.25518981e+02
  1131.000   8.20388664e+02
  1131.500   8.15359501e+02
  1132.000   8.10431324e+02
  1132.500   8.05603832e+02
  1133.000   8.00876599e+02
  1133.500   7.96249072e+02
  1134.000   7.91720573e+02
  1134.500   7.87290302e+02
  1135.000   7.82957333e+02
  1135.500   7.78720622e+02
  1136.000   7.74579001e+02
  1136.500   7.70531184e+02
  1137.000   7.66575770e+02
  1137.500   7.62711237e+02
  1138.000   7.58935951e+02
  1138.500   7.55248166e+02
  1139.000   7.51646022e+02
  1139.500   7.48127551e+02
  1140.000   7.44690680e+02
  1140.500   7.41333231e+02
  1141.000   7.38052924e+02
  1141.500   7.34847382e+02
  1142.000   7.31714133e+02
  1142.500   7.28650614e+02
  1143.000   7.25654176e+02
  1143.500   7.22722090e+02
  1144.000   7.19851548e+02
  1144.500   7.17039672e+02
  1145.000   7.14283519e+02
  1145.500   7.11580088e+02
  1146.000   7.08926324e+02
  1146.500   7.06319132e+02
  1147.000   7.03755377e+02
  1147.500   7.01231898e+02
  1148.000   6.98745516e+02
  1148.500   6.96293042e+02
  1149.000   6.93871286e+02
  1149.500   6.91477070e+02
  1150.000   6.89107235e+02
  1150.500   6.86758656e+02
  1151.000   6.84428246e+02
  1151.500   6.82112977e+02
  1152.000   6.79809880e+02
  1152.500   6.77516065e+02
  1153.000   6.75228728e+02
  1153.500   6.72945161e+02
  1154.000   6.70662766e+02
  1154.500   6.68379061e+02
  1155.000   6.66091695e+02
  1155.500   6.63798451e+02
  1156.000   6.61497260e+02
  1156.500   6.59186207e+02
  1157.000   6.56863537e+02
  1157.500   6.54527664e+02
  1158.000   6.52177174e+02
  1158.500   6.49810829e+02
  1159.000   6.47427574e+02
  1159.500   6.45026537e+02
  1160.000   6.42607028e+02
  1160.500   6.40168545e+02
  1161.000   6.37710768e+02
  1161.500   6.35233560e+02
  1162.000   6.32736962e+02
  1162.500   6.30221190e+02
  1163.000   6.27686633e+02
  1163.500   6.25133842e+02
  1164.000   6.22563526e+02
  1164.500   6.19976545e+02
  1165.000   6.17373902e+02
  1165.500   6.14756734e+02
  1166.000   6.12126300e+02
  1166.500   6.09483978e+02
  1167.000   6.06831247e+02
  1167.500   6.04169685e+02
  1168.000   6.01500951e+02
  1168.500   5.98826782e+02
  1169.000   5.96148976e+02
  1169.500   5.93469386e+02
  1170.000   5.90789910e+02
  1170.500   5.88112479e+02
  1171.000   5.85439049e+02
  1171.500   5.82771591e+02
  1172.000   5.80112085e+02
  1172.500   5.77462509e+02
  1173.000   5.74824832e+02
  1173.500   5.72201007e+02
  1174.000   5.69592966e+02
  1174.500   5.67002611e+02
  1175.000   5.64431810e+02
  1175.500   5.61882394e+02
  1176.000   5.59356148e+02
  1176.500   5.56854814e+02
  1177.000   5.54380080e+02
  1177.500   5.51933583e+02
  1178.000   5.49516903e+02
  1178.500   5.47131566e+02
  1179.000   5.44779036e+02
  1179.500   5.42460720e+02
  1180.000   5.40177964e+02
  1180.500   5.37932056e+02
  1181.000   5.35724221e+02
  1181.500   5.33555628e+02
  1182.000   5.31427384e+02
  1182.500   5.29340542e+02
  1183.000   5.27296097e+02
  1183.500   5.25294988e+02
  1184.000   5.23338102e+02
  1184.500   5.21426274e+02
  1185.000   5.19560291e+02
  1185.500   5.17740888e+02
  1186.000   5.15968760e+02
  1186.500   5.14244553e+02
  1187.000   5.12568874e+02
  1187.500   5.10942291e+02
  1188.000   5.09365334e+02
  1188.500   5.07838498e+02
  1189.000   5.06362246e+02
  1189.500   5.04937008e+02
  1190.000   5.03563187e+02
  1190.500   5.02241160e+02
  1191.000   5.00971278e+02
  1191.500   4.99753870e+02
  1192.000   4.98589244e+02
  1192.500   4.97477689e+02
  1193.000   4.96419479e+02
  1193.500   4.95414869e+02
  1194.000   4.94464103e+02
  1194.500   4.93567412e+02
  1195.000   4.92725016e+02
  1195.500   4.91937127e+02
  1196.000   4.91203949e+02
  1196.500   4.90525679e+02
  1197.000   4.89902509e+02
  1197.500   4.89334628e+02
  1198.000   4.88822222e+02
  1198.500   4.88365473e+02
  1199.000   4.87964567e+02
  1199.500   4.87619687e+02
  1200.000   4.87331018e+02
  1200.500   4.87098747e+02
  1201.000   4.86923065e+02
  1201.500   4.86804167e+02
  1202.000   4.86742250e+02
  1202.500   4.86737520e+02
  1203.000   4.86790186e+02
  1203.500   4.86900465e+02
  1204.000   4.87068579e+02
  1204.500   4.87294761e+02
  1205.000   4.87579249e+02
  1205.500   4.87922291e+02
  1206.000   4.88324144e+02
  1206.500   4.88785072e+02
  1207.000   4.89305351e+02
  1207.500   4.89885267e+02
  1208.000   4.90525113e+02
  1208.500   4.91225196e+02
  1209.000   4.91985832e+02
  1209.500   4.92807346e+02
  1210.000   4.93690075e+02
  1210.500   4.94634368e+02
  1211.000   4.95640582e+02
  1211.500   4.96709086e+02
  1212.000   4.97840260e+02
  1212.500   4.99034493e+02
  1213.000   5.00292186e+02
  1213.500   5.01613749e+02
  1214.000   5.02999601e+02
  1214.500   5.04450171e+02
  1215.000   5.05965899e+02
  1215.500   5.07547230e+02
  1216.000   5.09194620e+02
  1216.500   5.10908532e+02
  1217.000   5.12689433e+02
  1217.500   5.14537802e+02
  1218.000   5.16454118e+02
  1218.500   5.18438867e+02
  1219.000   5.20492541e+02
  1219.500   5.22615631e+02
  1220.000   5.24808632e+02
  1220.500   5.27072040e+02
  1221.000   5.29406350e+02
  1221.500   5.31812056e+02
  1222.000   5.34289649e+02
  1222.500   5.36839614e+02
  1223.000   5.39462433e+02
  1223.500   5.42158578e+02
  1224.000   5.44928514e+02
  1224.500   5.47772692e+02
  1225.000   5.50691554e+02
  1225.500   5.53685524e+02
  1226.000   5.56755011e+02
  1226.500   5.59900405e+02
  1227.000   5.63122074e+02
  1227.500   5.66420362e+02
  1228.000   5.69795588e+02
  1228.500   5.73248044e+02
  1229.000   5.76777987e+02
  1229.500   5.80385644e+02
  1230.000   5.84071204e+02
  1230.500   5.87834817e+02
  1231.000   5.91676591e+02
  1231.500   5.95596588e+02
  1232.000   5.99594826e+02
  1232.500   6.03671267e+02
  1233.000   6.07825822e+02
  1233.500   6.12058347e+02
  1234.000   6.16368636e+02
  1234.500   6.20756420e+02
  1235.000   6.25221367e+02
  1235.500   6.29763076e+02
  1236.000   6.34381074e+02
  1236.500   6.39074816e+02
  1237.000   6.43843682e+02
  1237.500   6.48686972e+02
  1238.000   6.53603907e+02
  1238.500   6.58593627e+02
  1239.000   6.63655185e+02
  1239.500   6.68787552e+02
  1240.000   6.73989613e+02
  1240.500   6.79260162e+02
  1241.000   6.84597909e+02
  1241.500   6.90001475e+02
  1242.000   6.95469391e+02
  1242.500   7.01000104e+02
  1243.000   7.06591971e+02
  1243.500   7.12243265e+02
  1244.000   7.17952174e+02
  1244.500   7.23716804e+02
  1245.000   7.29535180e+02
  1245.500   7.35405251e+02
  1246.000   7.41324888e+02
  1246.500   7.47291892e+02
  1247.000   7.53303995e+02
  1247.500   7.59358864e+02
  1248.000   7.65454102e+02
  1248.500   7.71587256e+02
  1249.000   7.77755817e+02
  1249.500   7.83957227e+02
  1250.000   7.90188879e+02
  1250.500   7.96448122e+02
  1251.000   8.02732265e+02
  1251.500   8.09038578e+02
  1252.000   8.15364296e+02
  1252.500   8.21706620e+02
  1253.000   8.28062718e+02
  1253.500   8.34429728e+02
  1254.000   8.40804754e+02
  1254.500   8.47184870e+02
  1255.000   8.53567115e+02
  1255.500   8.59948495e+02
  1256.000   8.66325976e+02
  1256.500   8.72696481e+02
  1257.000   8.79056890e+02
  1257.500   8.85404029e+02
  1258.000   8.91734667e+02
  1258.500   8.98045512e+02
  1259.000   9.04333198e+02
  1259.500   9.10594284e+02
  1260.000   9.16825241e+02
  1260.500   9.23022450e+02
  1261.000   9.29182188e+02
  1261.500   9.35300624e+02
  1262.000   9.41373811e+02
  1262.500   9.47397676e+02
  1263.000   9.53368020e+02
  1263.500   9.59280505e+02
  1264.000   9.65130655e+02
  1264.500   9.70913850e+02
  1265.000   9.76625326e+02
  1265.500   9.82260171e+02
  1266.000   9.87813332e+02
  1266.500   9.93279613e+02
  1267.000   9.98653683e+02
  1267.500   1.00393008e+03
  1268.000   1.00910324e+03
  1268.500   1.01416746e+03
  1269.000   1.01911698e+03
  1269.500   1.02394594e+03
  1270.000   1.02864843e+03
  1270.500   1.03321852e+03
  1271.000   1.03765025e+03
  1271.500   1.04193768e+03
  1272.000   1.04607490e+03
  1272.500   1.05005610e+03
  1273.000   1.05387554e+03
  1273.500   1.05752763e+03
  1274.000   1.06100694e+03
  1274.500   1.06430825e+03
  1275.000   1.06742655e+03
  1275.500   1.07035712e+03
  1276.000   1.07309554e+03
  1276.500   1.07563770e+03
  1277.000   1.07797990e+03
  1277.500   1.08011881e+03
  1278.000   1.08205151e+03
  1278.500   1.08377558e+03
  1279.000   1.08528903e+03
  1279.500   1.08659041e+03
  1280.000   1.08767877e+03
  1280.500   1.08855369e+03
  1281.000   1.08921532e+03
  1281.500   1.08966435e+03
  1282.000   1.08990203e+03
  1282.500   1.08993019e+03
  1283.000   1.08975123e+03
  1283.500   1.08936807e+03
  1284.000   1.08878423e+03
  1284.500   1.08800373e+03
  1285.000   1.08703113e+03
  1285.500   1.08587149e+03
  1286.000   1.08453034e+03
  1286.500   1.08301367e+03
  1287.000   1.08132792e+03
  1287.500   1.07947990e+03
  1288.000   1.07747682e+03
  1288.500   1.07532619e+03
  1289.000   1.07303587e+03
  1289.500   1.07061395e+03
  1290.000   1.06806878e+03
  1290.500   1.06540890e+03
  1291.000   1.06264301e+03
  1291.500   1.05977995e+03
  1292.000   1.05682866e+03
  1292.500   1.05379812e+03
  1293.000   1.05069736e+03
  1293.500   1.04753541e+03
  1294.000   1.04432126e+03
  1294.500   1.04106386e+03
  1295.000   1.03777204e+03
  1295.500   1.03445457e+03
  1296.000   1.03112004e+03
  1296.500   1.02777693e+03
  1297.000   1.02443352e+03
  1297.500   1.02109792e+03
  1298.000   1.01777801e+03
  1298.500   1.01448149e+03
  1299.000   1.01121581e+03
  1299.500   1.00798818e+03
  1300.000   1.00480557e+03
  1300.500   1.00167469e+03
  1301.000   9.98602014e+02
  1301.500   9.95593724e+02
  1302.000   9.92655756e+02
  1302.500   9.89793779e+02
  1303.000   9.87013194e+02
  1303.500   9.84319139e+02
  1304.000   9.81716489e+02
  1304.500   9.79209859e+02
  1305.000   9.76803609e+02
  1305.500   9.74501846e+02
  1306.000   9.72308428e+02
  1306.500   9.70226972e+02
  1307.000   9.68260855e+02
  1307.500   9.66413227e+02
  1308.000   9.64687006e+02
  1308.500   9.63084896e+02
  1309.000   9.61609385e+02
  1309.500   9.60262755e+02
  1310.000   9.59047088e+02
  1310.500   9.57964273e+02
  1311.000   9.57016010e+02
  1311.500   9.56203821e+02
  1312.000   9.55529053e+02
  1312.500   9.54992886e+02
  1313.000   9.54596338e+02
  1313.500   9.54340275e+02
  1314.000   9.54225413e+02
  1314.500   9.54252326e+02
  1315.000   9.54421453e+02
  1315.500   9.54733106e+02
  1316.000   9.55187470e+02
  1316.500   9.55784616e+02
  1317.000   9.56524506e+02
  1317.500   9.57406994e+02
  1318.000   9.58431841e+02
  1318.500   9.59598714e+02
  1319.000   9.60907197e+02
  1319.500   9.62356797e+02
  1320.000   9.63946949e+02
  1320.500   9.65677026e+02
  1321.000   9.67546345e+02
  1321.500   9.69554175e+02
  1322.000   9.71699742e+02
  1322.500   9.73982243e+02
  1323.000   9.76400849e+02
  1323.500   9.78954714e+02
  1324.000   9.81642987e+02
  1324.500   9.84464817e+02
  1325.000   9.87419367e+02
  1325.500   9.90505815e+02
  1326.000   9.93723375e+02
  1326.500   9.97071295e+02
  1327.000   1.00054888e+03
  1327.500   1.00415547e+03
  1328.000   1.00789052e+03
  1328.500   1.01175350e+03
  1329.000   1.01574403e+03
  1329.500   1.01986178e+03
  1330.000   1.02410655e+03
  1330.500   1.02847824e+03
  1331.000   1.03297687e+03
  1331.500   1.03760261e+03
  1332.000   1.04235575e+03
  1332.500   1.04723672e+03
  1333.000   1.05224610e+03
  1333.500   1.05738463e+03
  1334.000   1.06265321e+03
  1334.500   1.06805287e+03
  1335.000   1.07358484e+03
  1335.500   1.07925049e+03
  1336.000   1.08505137e+03
  1336.500   1.09098917e+03
  1337.000   1.09706576e+03
  1337.500   1.10328316e+03
  1338.000   1.10964353e+03
  1338.500   1.11614921e+03
  1339.000   1.12280264e+03
  1339.500   1.12960643e+03
  1340.000   1.13656329e+03
  1340.500   1.14367607e+03
  1341.000   1.15094771e+03
  1341.500   1.15838126e+03
  1342.000   1.16597983e+03
  1342.500   1.17374662e+03
  1343.000   1.18168490e+03
  1343.500   1.18979797e+03
  1344.000   1.19808915e+03
  1344.500   1.20656179e+03
  1345.000   1.21521924e+03
  1345.500   1.22406484e+03
  1346.000   1.23310189e+03
  1346.500   1.24233364e+03
  1347.000   1.25176328e+03
  1347.500   1.26139392e+03
  1348.000   1.27122857e+03
  1348.500   1.28127012e+03
  1349.000   1.29152133e+03
  1349.500   1.30198481e+03
  1350.000   1.31266299e+03
  1350.500   1.32355813e+03
  1351.000   1.33467225e+03
  1351.500   1.34600717e+03
  1352.000   1.35756446e+03
  1352.500   1.36934542e+03
  1353.000   1.38135107e+03
  1353.500   1.39358212e+03
  1354.000   1.40603897e+03
  1354.500   1.41872165e+03
  1355.000   1.43162985e+03
  1355.500   1.44476286e+03
  1356.000   1.45811958e+03
  1356.500   1.47169846e+03
  1357.000   1.48549753e+03
  1357.500   1.49951432e+03
  1358.000   1.51374589e+03
  1358.500   1.52818879e+03
  1359.000   1.54283901e+03
  1359.500   1.55769202e+03
  1360.000   1.57274270e+03
  1360.500   1.58798533e+03
  1361.000   1.60341356e+03
  1361.500   1.61902045e+03
  1362.000   1.63479835e+03
  1362.500   1.65073897e+03
  1363.000   1.66683332e+03
  1363.500   1.68307171e+03
  1364.000   1.69944372e+03
  1364.500   1.71593819e+03
  1365.000   1.73254323e+03
  1365.500   1.74924617e+03
  1366.000   1.76603359e+03
  1366.500   1.78289130e+03
  1367.000   1.79980434e+03
  1367.500   1.81675696e+03
  1368.000   1.83373265e+03
  1368.500   1.85071413e+03
  1369.000   1.86768337e+03
  1369.500   1.88462159e+03
  1370.000   1.90150929e+03
  1370.500   1.91832627e+03
  1371.000   1.93505161e+03
  1371.500   1.95166379e+03
  1372.000   1.96814065e+03
  1372.500   1.98445942e+03
  1373.000   2.00059685e+03
  1373.500   2.01652914e+03
  1374.000   2.03223210e+03
  1374.500   2.04768113e+03
  1375.000   2.06285133e+03
  1375.500   2.07771753e+03
  1376.000   2.09225439e+03
  1376.500   2.10643646e+03
  1377.000   2.12023826e+03
  1377.500   2.13363438e+03
  1378.000   2.14659953e+03
  1378.500   2.15910869e+03
  1379.000   2.17113712e+03
  1379.500   2.18266054e+03
  1380.000   2.19365517e+03
  1380.500   2.20409785e+03
  1381.000   2.21396614e+03
  1381.500   2.22323840e+03
  1382.000   2.23189391e+03
  1382.500   2.23991296e+03
  1383.000   2.24727692e+03
  1383.500   2.25396839e+03
  1384.000   2.25997121e+03
  1384.500   2.26527061e+03
  1385.000   2.26985324e+03
  1385.500   2.27370726e+03
  1386.000   2.27682243e+03
  1386.500   2.27919012e+03
  1387.000   2.28080337e+03
  1387.500   2.28165698e+03
  1388.000   2.28174747e+03
  1388.500   2.28107316e+03
  1389.000   2.27963415e+03
  1389.500   2.27743234e+03
  1390.000   2.27447140e+03
  1390.500   2.27075679e+03
  1391.000   2.26629570e+03
  1391.500   2.26109705e+03
  1392.000   2.25517139e+03
  1392.500   2.24853091e+03
  1393.000   2.24118932e+03
  1393.500   2.23316182e+03
  1394.000   2.22446501e+03
  1394.500   2.21511679e+03
  1395.000   2.20513630e+03
  1395.500   2.19454380e+03
  1396.000   2.18336058e+03
  1396.500   2.17160887e+03
  1397.000   2.15931171e+03
  1397.500   2.14649289e+03
  1398.000   2.13317679e+03
  1398.500   2.11938830e+03
  1399.000   2.10515274e+03
  1399.500   2.09049570e+03
  1400.000   2.07544300e+03
  1400.500   2.06002055e+03
  1401.000   2.04425429e+03
  1401.500   2.02817006e+03
  1402.000   2.01179357e+03
  1402.500   1.99515027e+03
  1403.000   1.97826529e+03
  1403.500   1.96116339e+03
  1404.000   1.94386890e+03
  1404.500   1.92640560e+03
  1405.000   1.90879675e+03
  1405.500   1.89106501e+03
  1406.000   1.87323238e+03
  1406.500   1.85532018e+03
  1407.000   1.83734903e+03
  1407.500   1.81933883e+03
  1408.000   1.80130871e+03
  1408.500   1.78327704e+03
  1409.000   1.76526142e+03
  1409.500   1.74727863e+03
  1410.000   1.72934472e+03
  1410.500   1.71147491e+03
  1411.000   1.69368364e+03
  1411.500   1.67598461e+03
  1412.000   1.65839071e+03
  1412.500   1.64091412e+03
  1413.000   1.62356623e+03
  1413.500   1.60635776e+03
  1414.000   1.58929868e+03
  1414.500   1.57239832e+03
  1415.000   1.55566529e+03
  1415.500   1.53910760e+03
  1416.000   1.52273262e+03
  1416.500   1.50654711e+03
  1417.000   1.49055726e+03
  1417.500   1.47476872e+03
  1418.000   1.45918656e+03
  1418.500   1.44381540e+03
  1419.000   1.42865933e+03
  1419.500   1.41372199e+03
  1420.000   1.39900657e+03
  1420.500   1.38451584e+03
  1421.000   1.37025218e+03
  1421.500   1.35621758e+03
  1422.000   1.34241365e+03
  1422.500   1.32884170e+03
  1423.000   1.31550267e+03
  1423.500   1.30239723e+03
  1424.000   1.28952574e+03
  1424.500   1.27688829e+03
  1425.000   1.26448472e+03
  1425.500   1.25231461e+03
  1426.000   1.24037731e+03
  1426.500   1.22867198e+03
  1427.000   1.21719755e+03
  1427.500   1.20595275e+03
  1428.000   1.19493614e+03
  1428.500   1.18414610e+03
  1429.000   1.17358086e+03
  1429.500   1.16323847e+03
  1430.000   1.15311684e+03
  1430.500   1.14321375e+03
  1431.000   1.13352684e+03
  1431.500   1.12405361e+03
  1432.000   1.11479145e+03
  1432.500   1.10573763e+03
  1433.000   1.09688931e+03
  1433.500   1.08824352e+03
  1434.000   1.07979721e+03
  1434.500   1.07154721e+03
  1435.000   1.06349026e+03
  1435.500   1.05562300e+03
  1436.000   1.04794196e+03
  1436.500   1.04044361e+03
  1437.000   1.03312430e+03
  1437.500   1.02598029e+03
  1438.000   1.01900777e+03
  1438.500   1.01220284e+03
  1439.000   1.00556149e+03
  1439.500   9.99079657e+02
  1440.000   9.92753173e+02
  1440.500   9.86577798e+02
  1441.000   9.80549207e+02
  1441.500   9.74662999e+02
  1442.000   9.68914693e+02
  1442.500   9.63299735e+02
  1443.000   9.57813496e+02
  1443.500   9.52451276e+02
  1444.000   9.47208307e+02
  1444.500   9.42079758e+02
  1445.000   9.37060734e+02
  1445.500   9.32146284e+02
  1446.000   9.27331406e+02
  1446.500   9.22611048e+02
  1447.000   9.17980116e+02
  1447.500   9.13433482e+02
  1448.000   9.08965988e+02
  1448.500   9.04572452e+02
  1449.000   9.00247682e+02
  1449.500   8.95986478e+02
  1450.000   8.91783646e+02
  1450.500   8.87634003e+02
  1451.000   8.83532394e+02
  1451.500   8.79473696e+02
  1452.000   8.75452835e+02
  1452.500   8.71464794e+02
  1453.000   8.67504629e+02
  1453.500   8.63567480e+02
  1454.000   8.59648583e+02
  1454.500   8.55743285e+02
  1455.000   8.51847059e+02
  1455.500   8.47955515e+02
  1456.000   8.44064411e+02
  1456.500   8.40169676e+02
  1457.000   8.36267411e+02
  1457.500   8.32353909e+02
  1458.000   8.28425668e+02
  1458.500   8.24479396e+02
  1459.000   8.20512027e+02
  1459.500   8.16520731e+02
  1460.000   8.12502919e+02
  1460.500   8.08456254e+02
  1461.000   8.04378656e+02
  1461.500   8.00268307e+02
  1462.000   7.96123658e+02
  1462.500   7.91943428e+02
  1463.000   7.87726606e+02
  1463.500   7.83472451e+02
  1464.000   7.79180491e+02
  1464.500   7.74850521e+02
  1465.000   7.70482594e+02
  1465.500   7.66077019e+02
  1466.000   7.61634352e+02
  1466.500   7.57155388e+02
  1467.000   7.52641150e+02
  1467.500   7.48092881e+02
  1468.000   7.43512030e+02
  1468.500   7.38900239e+02
  1469.000   7.34259332e+02
  1469.500   7.29591298e+02
  1470.000   7.24898280e+02
  1470.500   7.20182556e+02
  1471.000   7.15446529e+02
  1471.500   7.10692708e+02
  1472.000   7.05923695e+02
  1472.500   7.01142167e+02
  1473.000   6.96350867e+02
  1473.500   6.91552585e+02
  1474.000   6.86750144e+02
  1474.500   6.81946389e+02
  1475.000   6.77144175e+02
  1475.500   6.72346349e+02
  1476.000   6.67555748e+02
  1476.500   6.62775178e+02
  1477.000   6.58007412e+02
  1477.500   6.53255177e+02
  1478.000   6.48521145e+02
  1478.500   6.43807930e+02
  1479.000   6.39118075e+02
  1479.500   6.34454052e+02
  1480.000   6.29818252e+02
  1480.500   6.25212985e+02
  1481.000   6.20640471e+02
  1481.500   6.16102842e+02
  1482.000   6.11602138e+02
  1482.500   6.07140303e+02
  1483.000   6.02719187e+02
  1483.500   5.98340544e+02
  1484.000   5.94006032e+02
  1484.500   5.89717212e+02
  1485.000   5.85475553e+02
  1485.500   5.81282426e+02
  1486.000   5.77139113e+02
  1486.500   5.73046805e+02
  1487.000   5.69006602e+02
  1487.500   5.65019519e+02
  1488.000   5.61086487e+02
  1488.500   5.57208356e+02
  1489.000   5.53385895e+02
  1489.500   5.49619799e+02
  1490.000   5.45910689e+02
  1490.500   5.42259114e+02
  1491.000   5.38665558e+02
  1491.500   5.35130439e+02
  1492.000   5.31654113e+02
  1492.500   5.28236878e+02
  1493.000   5.24878975e+02
  1493.500   5.21580594e+02
  1494.000   5.18341870e+02
  1494.500   5.15162893e+02
  1495.000   5.12043709e+02
  1495.500   5.08984317e+02
  1496.000   5.05984679e+02
  1496.500   5.03044715e+02
  1497.000   5.00164312e+02
  1497.500   4.97343320e+02
  1498.000   4.94581559e+02
  1498.500   4.91878816e+02
  1499.000   4.89234850e+02
  1499.500   4.86649394e+02
  1500.000   4.84122151e+02
  1500.500   4.81652805e+02
  1501.000   4.79241011e+02
  1501.500   4.76886405e+02
  1502.000   4.74588601e+02
  1502.500   4.72347192e+02
  1503.000   4.70161752e+02
  1503.500   4.68031835e+02
  1504.000   4.65956978e+02
  1504.500   4.63936700e+02
  1505.000   4.61970501e+02
  1505.500   4.60057865e+02
  1506.000   4.58198261e+02
  1506.500   4.56391138e+02
  1507.000   4.54635931e+02
  1507.500   4.52932059e+02
  1508.000   4.51278923e+02
  1508.500   4.49675908e+02
  1509.000   4.48122385e+02
  1509.500   4.46617705e+02
  1510.000   4.45161206e+02
  1510.500   4.43752207e+02
  1511.000   4.42390011e+02
  1511.500   4.41073905e+02
  1512.000   4.39803157e+02
  1512.500   4.38577020e+02
  1513.000   4.37394728e+02
  1513.500   4.36255498e+02
  1514.000   4.35158531e+02
  1514.500   4.34103007e+02
  1515.000   4.33088093e+02
  1515.500   4.32112934e+02
  1516.000   4.31176661e+02
  1516.500   4.30278384e+02
  1517.000   4.29417201e+02
  1517.500   4.28592187e+02
  1518.000   4.27802406e+02
  1518.500   4.27046901e+02
  1519.000   4.26324703e+02
  1519.500   4.25634826e+02
  1520.000   4.24976269e+02
  1520.500   4.24348019e+02
  1521.000   4.23749048e+02
  1521.500   4.23178317e+02
  1522.000   4.22634776e+02
  1522.500   4.22117365e+02
  1523.000   4.21625014e+02
  1523.500   4.21156647e+02
  1524.000   4.20711182e+02
  1524.500   4.20287531e+02
  1525.000   4.19884604e+02
  1525.500   4.19501312e+02
  1526.000   4.19136563e+02
  1526.500   4.18789271e+02
  1527.000   4.18458353e+02
  1527.500   4.18142734e+02
  1528.000   4.17841348e+02
  1528.500   4.17553141e+02
  1529.000   4.17277075e+02
  1529.500   4.17012128e+02
  1530.000   4.16757297e+02
  1530.500   4.16511603e+02
  1531.000   4.16274094e+02
  1531.500   4.16043844e+02
  1532.000   4.15819963e+02
  1532.500   4.15601592e+02
  1533.000   4.15387914e+02
  1533.500   4.15178151e+02
  1534.000   4.14971571e+02
  1534.500   4.14767490e+02
  1535.000   4.14565275e+02
  1535.500   4.14364347e+02
  1536.000   4.14164185e+02
  1536.500   4.13964328e+02
  1537.000   4.13764376e+02
  1537.500   4.13563996e+02
  1538.000   4.13362922e+02
  1538.500   4.13160958e+02
  1539.000   4.12957978e+02
  1539.500   4.12753930e+02
  1540.000   4.12548835e+02
  1540.500   4.12342791e+02
  1541.000   4.12135968e+02
  1541.500   4.11928615e+02
  1542.000   4.11721055e+02
  1542.500   4.11513685e+02
  1543.000   4.11306978e+02
  1543.500   4.11101477e+02
  1544.000   4.10897799e+02
  1544.500   4.10696627e+02
  1545.000   4.10498715e+02
  1545.500   4.10304878e+02
  1546.000   4.10115993e+02
  1546.500   4.09932996e+02
  1547.000   4.09756879e+02
  1547.500   4.09588684e+02
  1548.000   4.09429502e+02
  1548.500   4.09280467e+02
  1549.000   4.09142753e+02
  1549.500   4.09017574e+02
  1550.000   4.08906172e+02
  1550.500   4.08809818e+02
  1551.000   4.08729811e+02
  1551.500   4.08667467e+02
  1552.000   4.08624119e+02
  1552.500   4.08601116e+02
  1553.000   4.08599813e+02
  1553.500   4.08621574e+02
  1554.000   4.08667766e+02
  1554.500   4.08739754e+02
  1555.000   4.08838901e+02
  1555.500   4.08966567e+02
  1556.000   4.09124102e+02
  1556.500   4.09312845e+02
  1557.000   4.09534126e+02
  1557.500   4.09789259e+02
  1558.000   4.10079544e+02
  1558.500   4.10406264e+02
  1559.000   4.10770683e+02
  1559.500   4.11174048e+02
  1560.000   4.11617586e+02
  1560.500   4.12102503e+02
  1561.000   4.12629984e+02
  1561.500   4.13201195e+02
  1562.000   4.13817278e+02
  1562.500   4.14479356e+02
  1563.000   4.15188528e+02
  1563.500   4.15945874e+02
  1564.000   4.16752451e+02
  1564.500   4.17609296e+02
  1565.000   4.18517425e+02
  1565.500   4.19477833e+02
  1566.000   4.20491496e+02
  1566.500   4.21559369e+02
  1567.000   4.22682388e+02
  1567.500   4.23861469e+02
  1568.000   4.25097511e+02
  1568.500   4.26391391e+02
  1569.000   4.27743971e+02
  1569.500   4.29156091e+02
  1570.000   4.30628577e+02
  1570.500   4.32162232e+02
  1571.000   4.33757844e+02
  1571.500   4.35416181e+02
  1572.000   4.37137991e+02
  1572.500   4.38924005e+02
  1573.000   4.40774933e+02
  1573.500   4.42691464e+02
  1574.000   4.44674267e+02
  1574.500   4.46723988e+02
  1575.000   4.48841251e+02
  1575.500   4.51026655e+02
  1576.000   4.53280772e+02
  1576.500   4.55604149e+02
  1577.000   4.57997305e+02
  1577.500   4.60460725e+02
  1578.000   4.62994865e+02
  1578.500   4.65600144e+02
  1579.000   4.68276944e+02
  1579.500   4.71025610e+02
  1580.000   4.73846441e+02
  1580.500   4.76739694e+02
  1581.000   4.79705574e+02
  1581.500   4.82744239e+02
  1582.000   4.85855789e+02
  1582.500   4.89040264e+02
  1583.000   4.92297644e+02
  1583.500   4.95627841e+02
  1584.000   4.99030696e+02
  1584.500   5.02505976e+02
  1585.000   5.06053364e+02
  1585.500   5.09672464e+02
  1586.000   5.13362785e+02
  1586.500   5.17123745e+02
  1587.000   5.20954661e+02
  1587.500   5.24854744e+02
  1588.000   5.28823095e+02
  1588.500   5.32858702e+02
  1589.000   5.36960426e+02
  1589.500   5.41127008e+02
  1590.000   5.45357051e+02
  1590.500   5.49649025e+02
  1591.000   5.54001256e+02
  1591.500   5.58411921e+02
  1592.000   5.62879046e+02
  1592.500   5.67400500e+02
  1593.000   5.71973989e+02
  1593.500   5.76597056e+02
  1594.000   5.81267072e+02
  1594.500   5.85981237e+02
  1595.000   5.90736578e+02
  1595.500   5.95529943e+02
  1596.000   6.00358002e+02
  1596.500   6.05217249e+02
  1597.000   6.10103995e+02
  1597.500   6.15014379e+02
  1598.000   6.19944361e+02
  1598.500   6.24889731e+02
  1599.000   6.29846109e+02
  1599.500   6.34808953e+02
  1600.000   6.39773565e+02
  1600.500   6.44735097e+02
  1601.000   6.49688561e+02
  1601.500   6.54628839e+02
  1602.000   6.59550696e+02
  1602.500   6.64448786e+02
  1603.000   6.69317674e+02
  1603.500   6.74151848e+02
  1604.000   6.78945733e+02
  1604.500   6.83693709e+02
  1605.000   6.88390135e+02
  1605.500   6.93029358e+02
  1606.000   6.97605744e+02
  1606.500   7.02113690e+02
  1607.000   7.06547652e+02
  1607.500   7.10902164e+02
  1608.000   7.15171859e+02
  1608.500   7.19351493e+02
  1609.000   7.23435967e+02
  1609.500   7.27420348e+02
  1610.000   7.31299891e+02
  1610.500   7.35070059e+02
  1611.000   7.38726542e+02
  1611.500   7.42265276e+02
  1612.000   7.45682461e+02
  1612.500   7.48974573e+02
  1613.000   7.52138384e+02
  1613.500   7.55170966e+02
  1614.000   7.58069710e+02
  1614.500   7.60832325e+02
  1615.000   7.63456850e+02
  1615.500   7.65941656e+02
  1616.000   7.68285447e+02
  1616.500   7.70487257e+02
  1617.000   7.72546450e+02
  1617.500   7.74462714e+02
  1618.000   7.76236054e+02
  1618.500   7.77866779e+02
  1619.000   7.79355496e+02
  1619.500   7.80703095e+02
  1620.000   7.81910734e+02
  1620.500   7.82979825e+02
  1621.000   7.83912018e+02
  1621.500   7.84709180e+02
  1622.000   7.85373384e+02
  1622.500   7.85906882e+02
  1623.000   7.86312095e+02
  1623.500   7.86591591e+02
  1624.000   7.86748067e+02
  1624.500   7.86784331e+02
  1625.000   7.86703288e+02
  1625.500   7.86507924e+02
  1626.000   7.86201289e+02
  1626.500   7.85786485e+02
  1627.000   7.85266656e+02
  1627.500   7.84644973e+02
  1628.000   7.83924627e+02
  1628.500   7.83108822e+02
  1629.000   7.82200767e+02
  1629.500   7.81203671e+02
  1630.000   7.80120740e+02
  1630.500   7.78955174e+02
  1631.000   7.77710166e+02
  1631.500   7.76388902e+02
  1632.000   7.74994561e+02
  1632.500   7.73530318e+02
  1633.000   7.71999346e+02
  1633.500   7.70404819e+02
  1634.000   7.68749913e+02
  1634.500   7.67037814e+02
  1635.000   7.65271718e+02
  1635.500   7.63454835e+02
  1636.000   7.61590396e+02
  1636.500   7.59681651e+02
  1637.000   7.57731873e+02
  1637.500   7.55744363e+02
  1638.000   7.53722446e+02
  1638.500   7.51669476e+02
  1639.000   7.49588835e+02
  1639.500   7.47483930e+02
  1640.000   7.45358191e+02
  1640.500   7.43215070e+02
  1641.000   7.41058035e+02
  1641.500   7.38890567e+02
  1642.000   7.36716153e+02
  1642.500   7.34538281e+02
  1643.000   7.32360429e+02
  1643.500   7.30186062e+02
  1644.000   7.28018620e+02
  1644.500   7.25861509e+02
  1645.000   7.23718094e+02
  1645.500   7.21591685e+02
  1646.000   7.19485528e+02
  1646.500   7.17402795e+02
  1647.000   7.15346575e+02
  1647.500   7.13319856e+02
  1648.000   7.11325523e+02
  1648.500   7.09366341e+02
  1649.000   7.07444944e+02
  1649.500   7.05563831e+02
  1650.000   7.03725346e+02
  1650.500   7.01931676e+02
  1651.000   7.00184838e+02
  1651.500   6.98486668e+02
  1652.000   6.96838816e+02
  1652.500   6.95242735e+02
  1653.000   6.93699673e+02
  1653.500   6.92210666e+02
  1654.000   6.90776533e+02
  1654.500   6.89397866e+02
  1655.000   6.88075027e+02
  1655.500   6.86808141e+02
  1656.000   6.85597092e+02
  1656.500   6.84441522e+02
  1657.000   6.83340822e+02
  1657.500   6.82294134e+02
  1658.000   6.81300346e+02
  1658.500   6.80358092e+02
  1659.000   6.79465754e+02
  1659.500   6.78621458e+02
  1660.000   6.77823077e+02
  1660.500   6.77068233e+02
  1661.000   6.76354300e+02
  1661.500   6.75678407e+02
  1662.000   6.75037445e+02
  1662.500   6.74428069e+02
  1663.000   6.73846706e+02
  1663.500   6.73289565e+02
  1664.000   6.72752643e+02
  1664.500   6.72231739e+02
  1665.000   6.71722458e+02
  1665.500   6.71220232e+02
  1666.000   6.70720325e+02
  1666.500   6.70217857e+02
  1667.000   6.69707811e+02
  1667.500   6.69185056e+02
  1668.000   6.68644362e+02
  1668.500   6.68080421e+02
  1669.000   6.67487867e+02
  1669.500   6.66861295e+02
  1670.000   6.66195287e+02
  1670.500   6.65484432e+02
  1671.000   6.64723351e+02
  1671.500   6.63906719e+02
  1672.000   6.63029291e+02
  1672.500   6.62085926e+02
  1673.000   6.61071613e+02
  1673.500   6.59981493e+02
  1674.000   6.58810885e+02
  1674.500   6.57555307e+02
  1675.000   6.56210503e+02
  1675.500   6.54772462e+02
  1676.000   6.53237438e+02
  1676.500   6.51601972e+02
  1677.000   6.49862908e+02
  1677.500   6.48017411e+02
  1678.000   6.46062980e+02
  1678.500   6.43997459e+02
  1679.000   6.41819053e+02
  1679.500   6.39526330e+02
  1680.000   6.37118229e+02
  1680.500   6.34594065e+02
  1681.000   6.31953530e+02
  1681.500   6.29196690e+02
  1682.000   6.26323982e+02
  1682.500   6.23336211e+02
  1683.000   6.20234537e+02
  1683.500   6.17020472e+02
  1684.000   6.13695862e+02
  1684.500   6.10262873e+02
  1685.000   6.06723981e+02
  1685.500   6.03081951e+02
  1686.000   5.99339818e+02
  1686.500   5.95500869e+02
  1687.000   5.91568623e+02
  1687.500   5.87546809e+02
  1688.000   5.83439342e+02
  1688.500   5.79250308e+02
  1689.000   5.74983933e+02
  1689.500   5.70644565e+02
  1690.000   5.66236655e+02
  1690.500   5.61764730e+02
  1691.000   5.57233373e+02
  1691.500   5.52647207e+02
  1692.000   5.48010870e+02
  1692.500   5.43328999e+02
  1693.000   5.38606211e+02
  1693.500   5.33847090e+02
  1694.000   5.29056164e+02
  1694.500   5.24237897e+02
  1695.000   5.19396675e+02
  1695.500   5.14536792e+02
  1696.000   5.09662437e+02
  1696.500   5.04777690e+02
  1697.000   4.99886511e+02
  1697.500   4.94992731e+02
  1698.000   4.90100047e+02
  1698.500   4.85212017e+02
  1699.000   4.80332056e+02
  1699.500   4.75463433e+02
  1700.000   4.70609269e+02
  1700.500   4.65772532e+02
  1701.000   4.60956042e+02
  1701.500   4.56162467e+02
  1702.000   4.51394328e+02
  1702.500   4.46653994e+02
  1703.000   4.41943689e+02
  1703.500   4.37265493e+02
  1704.000   4.32621345e+02
  1704.500   4.28013046e+02
  1705.000   4.23442263e+02
  1705.500   4.18910530e+02
  1706.000   4.14419257e+02
  1706.500   4.09969731e+02
  1707.000   4.05563122e+02
  1707.500   4.01200483e+02
  1708.000   3.96882763e+02
  1708.500   3.92610803e+02
  1709.000   3.88385346e+02
  1709.500   3.84207040e+02
  1710.000   3.80076441e+02
  1710.500   3.75994022e+02
  1711.000   3.71960173e+02
  1711.500   3.67975206e+02
  1712.000   3.64039362e+02
  1712.500   3.60152812e+02
  1713.000   3.56315665e+02
  1713.500   3.52527966e+02
  1714.000   3.48789707e+02
  1714.500   3.45100825e+02
  1715.000   3.41461207e+02
  1715.500   3.37870697e+02
  1716.000   3.34329093e+02
  1716.500   3.30836156e+02
  1717.000   3.27391609e+02
  1717.500   3.23995141e+02
  1718.000   3.20646412e+02
  1718.500   3.17345052e+02
  1719.000   3.14090666e+02
  1719.500   3.10882836e+02
  1720.000   3.07721120e+02
  1720.500   3.04605061e+02
  1721.000   3.01534181e+02
  1721.500   2.98507989e+02
  1722.000   2.95525979e+02
  1722.500   2.92587633e+02
  1723.000   2.89692425e+02
  1723.500   2.86839816e+02
  1724.000   2.84029263e+02
  1724.500   2.81260215e+02
  1725.000   2.78532115e+02
  1725.500   2.75844404e+02
  1726.000   2.73196518e+02
  1726.500   2.70587893e+02
  1727.000   2.68017961e+02
  1727.500   2.65486157e+02
  1728.000   2.62991912e+02
  1728.500   2.60534663e+02
  1729.000   2.58113846e+02
  1729.500   2.55728898e+02
  1730.000   2.53379262e+02
  1730.500   2.51064382e+02
  1731.000   2.48783707e+02
  1731.500   2.46536690e+02
  1732.000   2.44322788e+02
  1732.500   2.42141463e+02
  1733.000   2.39992182e+02
  1733.500   2.37874420e+02
  1734.000   2.35787654e+02
  1734.500   2.33731369e+02
  1735.000   2.31705056e+02
  1735.500   2.29708213e+02
  1736.000   2.27740342e+02
  1736.500   2.25800954e+02
  1737.000   2.23889566e+02
  1737.500   2.22005701e+02
  1738.000   2.20148889e+02
  1738.500   2.18318669e+02
  1739.000   2.16514584e+02
  1739.500   2.14736186e+02
  1740.000   2.12983032e+02
  1740.500   2.11254689e+02
  1741.000   2.09550727e+02
  1741.500   2.07870727e+02
  1742.000   2.06214274e+02
  1742.500   2.04580961e+02
  1743.000   2.02970388e+02
  1743.500   2.01382161e+02
  1744.000   1.99815895e+02
  1744.500   1.98271208e+02
  1745.000   1.96747729e+02
  1745.500   1.95245089e+02
  1746.000   1.93762930e+02
  1746.500   1.92300897e+02
  1747.000   1.90858642e+02
  1747.500   1.89435826e+02
  1748.000   1.88032113e+02
  1748.500   1.86647174e+02
  1749.000   1.85280686e+02
  1749.500   1.83932333e+02
  1750.000   1.82601805e+02
  1750.500   1.81288795e+02
  1751.000   1.79993005e+02
  1751.500   1.78714140e+02
  1752.000   1.77451913e+02
  1752.500   1.76206040e+02
  1753.000   1.74976244e+02
  1753.500   1.73762253e+02
  1754.000   1.72563800e+02
  1754.500   1.71380622e+02
  1755.000   1.70212462e+02
  1755.500   1.69059068e+02
  1756.000   1.67920193e+02
  1756.500   1.66795594e+02
  1757.000   1.65685033e+02
  1757.500   1.64588276e+02
  1758.000   1.63505094e+02
  1758.500   1.62435262e+02
  1759.000   1.61378560e+02
  1759.500   1.60334772e+02
  1760.000   1.59303685e+02
  1760.500   1.58285092e+02
  1761.000   1.57278787e+02
  1761.500   1.56284572e+02
  1762.000   1.55302250e+02
  1762.500   1.54331627e+02
  1763.000   1.53372515e+02
  1763.500   1.52424728e+02
  1764.000   1.51488085e+02
  1764.500   1.50562407e+02
  1765.000   1.49647519e+02
  1765.500   1.48743249e+02
  1766.000   1.47849428e+02
  1766.500   1.46965892e+02
  1767.000   1.46092477e+02
  1767.500   1.45229025e+02
  1768.000   1.44375380e+02
  1768.500   1.43531388e+02
  1769.000   1.42696899e+02
  1769.500   1.41871765e+02
  1770.000   1.41055841e+02
  1770.500   1.40248986e+02
  1771.000   1.39451059e+02
  1771.500   1.38661925e+02
  1772.000   1.37881447e+02
  1772.500   1.37109496e+02
  1773.000   1.36345940e+02
  1773.500   1.35590654e+02
  1774.000   1.34843512e+02
  1774.500   1.34104391e+02
  1775.000   1.33373173e+02
  1775.500   1.32649738e+02
  1776.000   1.31933970e+02
  1776.500   1.31225757e+02
  1777.000   1.30524986e+02
  1777.500   1.29831548e+02
  1778.000   1.29145335e+02
  1778.500   1.28466240e+02
  1779.000   1.27794161e+02
  1779.500   1.27128996e+02
  1780.000   1.26470643e+02
  1780.500   1.25819005e+02
  1781.000   1.25173986e+02
  1781.500   1.24535489e+02
  1782.000   1.23903423e+02
  1782.500   1.23277695e+02
  1783.000   1.22658215e+02
  1783.500   1.22044895e+02
  1784.000   1.21437648e+02
  1784.500   1.20836389e+02
  1785.000   1.20241034e+02
  1785.500   1.19651501e+02
  1786.000   1.19067708e+02
  1786.500   1.18489576e+02
  1787.000   1.17917027e+02
  1787.500   1.17349984e+02
  1788.000   1.16788371e+02
  1788.500   1.16232114e+02
  1789.000   1.15681141e+02
  1789.500   1.15135379e+02
  1790.000   1.14594758e+02
  1790.500   1.14059209e+02
  1791.000   1.13528664e+02
  1791.500   1.13003055e+02
  1792.000   1.12482316e+02
  1792.500   1.11966384e+02
  1793.000   1.11455193e+02
  1793.500   1.10948682e+02
  1794.000   1.10446789e+02
  1794.500   1.09949454e+02
  1795.000   1.09456616e+02
  1795.500   1.08968217e+02
  1796.000   1.08484200e+02
  1796.500   1.08004508e+02
  1797.000   1.07529084e+02
  1797.500   1.07057875e+02
  1798.000   1.06590826e+02
  1798.500   1.06127885e+02
  1799.000   1.05668998e+02
  1799.500   1.05214114e+02
  1800.000   1.04763184e+02
  1800.500   1.04316156e+02
  1801.000   1.03872983e+02
  1801.500   1.03433616e+02
  1802.000   1.02998007e+02
  1802.500   1.02566110e+02
  1803.000   1.02137879e+02
  1803.500   1.01713268e+02
  1804.000   1.01292234e+02
  1804.500   1.00874732e+02
  1805.000   1.00460719e+02
  1805.500   1.00050152e+02
  1806.000   9.96429906e+01
  1806.500   9.92391927e+01
  1807.000   9.88387179e+01
  1807.500   9.84415264e+01
  1808.000   9.80475787e+01
  1808.500   9.76568362e+01
  1809.000   9.72692609e+01
  1809.500   9.68848150e+01
  1810.000   9.65034618e+01
  1810.500   9.61251647e+01
  1811.000   9.57498879e+01
  1811.500   9.53775961e+01
  1812.000   9.50082544e+01
  1812.500   9.46418287e+01
  1813.000   9.42782851e+01
  1813.500   9.39175903e+01
  1814.000   9.35597116e+01
  1814.500   9.32046167e+01
  1815.000   9.28522738e+01
  1815.500   9.25026515e+01
  1816.000   9.21557188e+01
  1816.500   9.18114455e+01
  1817.000   9.14698014e+01
  1817.500   9.11307571e+01
  1818.000   9.07942832e+01
  1818.500   9.04603513e+01
  1819.000   9.01289328e+01
  1819.500   8.98000000e+01
  1820.000   8.94735253e+01
  1820.500   8.91494815e+01
  1821.000   8.88278421e+01
  1821.500   8.85085806e+01
  1822.000   8.81916710e+01
  1822.500   8.78770877e+01
  1823.000   8.75648056e+01
  1823.500   8.72547996e+01
  1824.000   8.69470452e+01
  1824.500   8.66415182e+01
  1825.000   8.63381948e+01
  1825.500   8.60370513e+01
  1826.000   8.57380647e+01
  1826.500   8.54412119e+01
  1827.000   8.51464704e+01
  1827.500   8.48538179e+01
  1828.000   8.45632324e+01
  1828.500   8.42746923e+01
  1829.000   8.39881762e+01
  1829.500   8.37036629e+01
  1830.000   8.34211318e+01
  1830.500   8.31405622e+01
  1831.000   8.28619339e+01
  1831.500   8.25852269e+01
  1832.000   8.23104215e+01
  1832.500   8.20374983e+01
  1833.000   8.17664381e+01
  1833.500   8.14972219e+01
  1834.000   8.12298310e+01
  1834.500   8.09642470e+01
  1835.000   8.07004516e+01
  1835.500   8.04384270e+01
  1836.000   8.01781554e+01
  1836.500   7.99196193e+01
  1837.000   7.96628014e+01
  1837.500   7.94076847e+01
  1838.000   7.91542523e+01
  1838.500   7.89024876e+01
  1839.000   7.86523743e+01
  1839.500   7.84038961e+01
  1840.000   7.81570371e+01
  1840.500   7.79117815e+01
  1841.000   7.76681136e+01
  1841.500   7.74260182e+01
  1842.000   7.71854800e+01
  1842.500   7.69464841e+01
  1843.000   7.67090155e+01
  1843.500   7.64730598e+01
  1844.000   7.62386025e+01
  1844.500   7.60056292e+01
  1845.000   7.57741260e+01
  1845.500   7.55440788e+01
  1846.000   7.53154741e+01
  1846.500   7.50882981e+01
  1847.000   7.48625376e+01
  1847.500   7.46381792e+01
  1848.000   7.44152099e+01
  1848.500   7.41936168e+01
  1849.000   7.39733871e+01
  1849.500   7.37545083e+01
  1850.000   7.35369678e+01
  1850.500   7.33207533e+01
  1851.000   7.31058528e+01
  1851.500   7.28922542e+01
  1852.000   7.26799456e+01
  1852.500   7.24689153e+01
  1853.000   7.22591518e+01
  1853.500   7.20506435e+01
  1854.000   7.18433792e+01
  1854.500   7.16373477e+01
  1855.000   7.14325380e+01
  1855.500   7.12289391e+01
  1856.000   7.10265403e+01
  1856.500   7.08253308e+01
  1857.000   7.06253003e+01
  1857.500   7.04264381e+01
  1858.000   7.02287341e+01
  1858.500   7.00321781e+01
  1859.000   6.98367600e+01
  1859.500   6.96424699e+01
  1860.000   6.94492979e+01
  1860.500   6.92572343e+01
  1861.000   6.90662696e+01
  1861.500   6.88763943e+01
  1862.000   6.86875988e+01
  1862.500   6.84998741e+01
  1863.000   6.83132108e+01
  1863.500   6.81276000e+01
  1864.000   6.79430326e+01
  1864.500   6.77594998e+01
  1865.000   6.75769928e+01
  1865.500   6.73955029e+01
  1866.000   6.72150216e+01
  1866.500   6.70355404e+01
  1867.000   6.68570509e+01
  1867.500   6.66795448e+01
  1868.000   6.65030139e+01
  1868.500   6.63274501e+01
  1869.000   6.61528454e+01
  1869.500   6.59791918e+01
  1870.000   6.58064815e+01
  1870.500   6.56347067e+01
  1871.000   6.54638597e+01
  1871.500   6.52939330e+01
  1872.000   6.51249190e+01
  1872.500   6.49568104e+01
  1873.000   6.47895996e+01
  1873.500   6.46232796e+01
  1874.000   6.44578430e+01
  1874.500   6.42932827e+01
  1875.000   6.41295918e+01
  1875.500   6.39667633e+01
  1876.000   6.38047901e+01
  1876.500   6.36436656e+01
  1877.000   6.34833830e+01
  1877.500   6.33239356e+01
  1878.000   6.31653168e+01
  1878.500   6.30075200e+01
  1879.000   6.28505388e+01
  1879.500   6.26943667e+01
  1880.000   6.25389975e+01
  1880.500   6.23844249e+01
  1881.000   6.22306426e+01
  1881.500   6.20776445e+01
  1882.000   6.19254246e+01
  1882.500   6.17739768e+01
  1883.000   6.16232951e+01
  1883.500   6.14733737e+01
  1884.000   6.13242068e+01
  1884.500   6.11757885e+01
  1885.000   6.10281131e+01
  1885.500   6.08811750e+01
  1886.000   6.07349686e+01
  1886.500   6.05894883e+01
  1887.000   6.04447287e+01
  1887.500   6.03006843e+01
  1888.000   6.01573497e+01
  1888.500   6.00147196e+01
  1889.000   5.98727887e+01
  1889.500   5.97315519e+01
  1890.000   5.95910039e+01
  1890.500   5.94511396e+01
  1891.000   5.93119539e+01
  1891.500   5.91734419e+01
  1892.000   5.90355986e+01
  1892.500   5.88984190e+01
  1893.000   5.87618983e+01
  1893.500   5.86260316e+01
  1894.000   5.84908143e+01
  1894.500   5.83562414e+01
  1895.000   5.82223084e+01
  1895.500   5.80890107e+01
  1896.000   5.79563435e+01
  1896.500   5.78243025e+01
  1897.000   5.76928830e+01
  1897.500   5.75620806e+01
  1898.000   5.74318909e+01
  1898.500   5.73023095e+01
  1899.000   5.71733320e+01
  1899.500   5.70449542e+01
  1900.000   5.69171719e+01
  1900.500   5.67899807e+01
  1901.000   5.66633766e+01
  1901.500   5.65373553e+01
  1902.000   5.64119129e+01
  1902.500   5.62870452e+01
  1903.000   5.61627481e+01
  1903.500   5.60390178e+01
  1904.000   5.59158503e+01
  1904.500   5.57932417e+01
  1905.000   5.56711881e+01
  1905.500   5.55496856e+01
  1906.000   5.54287304e+01
  1906.500   5.53083189e+01
  1907.000   5.51884472e+01
  1907.500   5.50691117e+01
  1908.000   5.49503086e+01
  1908.500   5.48320345e+01
  1909.000   5.47142856e+01
  1909.500   5.45970583e+01
  1910.000   5.44803493e+01
  1910.500   5.43641549e+01
  1911.000   5.42484717e+01
  1911.500   5.41332962e+01
  1912.000   5.40186251e+01
  1912.500   5.39044550e+01
  1913.000   5.37907825e+01
  1913.500   5.36776043e+01
  1914.000   5.35649171e+01
  1914.500   5.34527176e+01
  1915.000   5.33410027e+01
  1915.500   5.32297692e+01
  1916.000   5.31190137e+01
  1916.500   5.30087333e+01
  1917.000   5.28989248e+01
  1917.500   5.27895851e+01
  1918.000   5.26807111e+01
  1918.500   5.25722999e+01
  1919.000   5.24643483e+01
  1919.500   5.23568535e+01
  1920.000   5.22498124e+01
  1920.500   5.21432221e+01
  1921.000   5.20370797e+01
  1921.500   5.19313824e+01
  1922.000   5.18261273e+01
  1922.500   5.17213115e+01
  1923.000   5.16169323e+01
  1923.500   5.15129868e+01
  1924.000   5.14094723e+01
  1924.500   5.13063861e+01
  1925.000   5.12037254e+01
  1925.500   5.11014876e+01
  1926.000   5.09996700e+01
  1926.500   5.08982699e+01
  1927.000   5.07972848e+01
  1927.500   5.06967119e+01
  1928.000   5.05965489e+01
  1928.500   5.04967930e+01
  1929.000   5.03974418e+01
  1929.500   5.02984927e+01
  1930.000   5.01999432e+01
  1930.500   5.01017910e+01
  1931.000   5.00040334e+01
  1931.500   4.99066682e+01
  1932.000   4.98096928e+01
  1932.500   4.97131050e+01
  1933.000   4.96169022e+01
  1933.500   4.95210822e+01
  1934.000   4.94256426e+01
  1934.500   4.93305812e+01
  1935.000   4.92358956e+01
  1935.500   4.91415835e+01
  1936.000   4.90476427e+01
  1936.500   4.89540709e+01
  1937.000   4.88608660e+01
  1937.500   4.87680257e+01
  1938.000   4.86755478e+01
  1938.500   4.85834303e+01
  1939.000   4.84916708e+01
  1939.500   4.84002673e+01
  1940.000   4.83092177e+01
  1940.500   4.82185198e+01
  1941.000   4.81281716e+01
  1941.500   4.80381711e+01
  1942.000   4.79485161e+01
  1942.500   4.78592046e+01
  1943.000   4.77702347e+01
  1943.500   4.76816043e+01
  1944.000   4.75933114e+01
  1944.500   4.75053541e+01
  1945.000   4.74177304e+01
  1945.500   4.73304383e+01
  1946.000   4.72434760e+01
  1946.500   4.71568415e+01
  1947.000   4.70705330e+01
  1947.500   4.69845485e+01
  1948.000   4.68988863e+01
  1948.500   4.68135443e+01
  1949.000   4.67285209e+01
  1949.500   4.66438141e+01
  1950.000   4.65594223e+01
  1950.500   4.64753435e+01
  1951.000   4.63915760e+01
  1951.500   4.63081181e+01
  1952.000   4.62249679e+01
  1952.500   4.61421238e+01
  1953.000   4.60595840e+01
  1953.500   4.59773468e+01
  1954.000   4.58954105e+01
  1954.500   4.58137734e+01
  1955.000   4.57324339e+01
  1955.500   4.56513902e+01
  1956.000   4.55706408e+01
  1956.500   4.54901840e+01
  1957.000   4.54100181e+01
  1957.500   4.53301416e+01
  1958.000   4.52505528e+01
  1958.500   4.51712502e+01
  1959.000   4.50922322e+01
  1959.500   4.50134972e+01
  1960.000   4.49350436e+01
  1960.500   4.48568700e+01
  1961.000   4.47789748e+01
  1961.500   4.47013565e+01
  1962.000   4.46240135e+01
  1962.500   4.45469444e+01
  1963.000   4.44701476e+01
  1963.500   4.43936218e+01
  1964.000   4.43173654e+01
  1964.500   4.42413771e+01
  1965.000   4.41656552e+01
  1965.500   4.40901985e+01
  1966.000   4.40150054e+01
  1966.500   4.39400747e+01
  1967.000   4.38654048e+01
  1967.500   4.37909944e+01
  1968.000   4.37168421e+01
  1968.500   4.36429465e+01
  1969.000   4.35693063e+01
  1969.500   4.34959201e+01
  1970.000   4.34227866e+01
  1970.500   4.33499044e+01
  1971.000   4.32772722e+01
  1971.500   4.32048888e+01
  1972.000   4.31327527e+01
  1972.500   4.30608628e+01
  1973.000   4.29892176e+01
  1973.500   4.29178160e+01
  1974.000   4.28466567e+01
  1974.500   4.27757383e+01
  1975.000   4.27050598e+01
  1975.500   4.26346197e+01
  1976.000   4.25644169e+01
  1976.500   4.24944502e+01
  1977.000   4.24247184e+01
  1977.500   4.23552201e+01
  1978.000   4.22859544e+01
  1978.500   4.22169198e+01
  1979.000   4.21481154e+01
  1979.500   4.20795398e+01
  1980.000   4.20111919e+01
  1980.500   4.19430706e+01
  1981.000   4.18751747e+01
  1981.500   4.18075031e+01
  1982.000   4.17400547e+01
  1982.500   4.16728282e+01
  1983.000   4.16058227e+01
  1983.500   4.15390369e+01
  1984.000   4.14724698e+01
  1984.500   4.14061203e+01
  1985.000   4.13399872e+01
  1985.500   4.12740696e+01
  1986.000   4.12083664e+01
  1986.500   4.11428763e+01
  1987.000   4.10775986e+01
  1987.500   4.10125319e+01
  1988.000   4.09476754e+01
  1988.500   4.08830279e+01
  1989.000   4.08185885e+01
  1989.500   4.07543561e+01
  1990.000   4.06903298e+01
  1990.500   4.06265084e+01
  1991.000   4.05628909e+01
  1991.500   4.04994765e+01
  1992.000   4.04362641e+01
  1992.500   4.03732526e+01
  1993.000   4.03104412e+01
  1993.500   4.02478289e+01
  1994.000   4.01854147e+01
  1994.500   4.01231976e+01
  1995.000   4.00611767e+01
  1995.500   3.99993510e+01
  1996.000   3.99377196e+01
  1996.500   3.98762816e+01
  1997.000   3.98150360e+01
  1997.500   3.97539819e+01
  1998.000   3.96931185e+01
  1998.500   3.96324447e+01
  1999.000   3.95719597e+01
  1999.500   3.95116626e+01
  2000.000   3.94515525e+01
  2000.500   3.93916284e+01
  2001.000   3.93318897e+01
  2001.500   3.92723352e+01
  2002.000   3.92129643e+01
  2002.500   3.91537759e+01
  2003.000   3.90947693e+01
  2003.500   3.90359437e+01
  2004.000   3.89772980e+01
  2004.500   3.89188316e+01
  2005.000   3.88605436e+01
  2005.500   3.88024331e+01
  2006.000   3.87444993e+01
  2006.500   3.86867415e+01
  2007.000   3.86291587e+01
  2007.500   3.85717501e+01
  2008.000   3.85145151e+01
  2008.500   3.84574527e+01
  2009.000   3.84005622e+01
  2009.500   3.83438427e+01
  2010.000   3.82872936e+01
  2010.500   3.82309139e+01
  2011.000   3.81747030e+01
  2011.500   3.81186601e+01
  2012.000   3.80627843e+01
  2012.500   3.80070750e+01
  2013.000   3.79515313e+01
  2013.500   3.78961526e+01
  2014.000   3.78409381e+01
  2014.500   3.77858870e+01
  2015.000   3.77309986e+01
  2015.500   3.76762721e+01
  2016.000   3.76217069e+01
  2016.500   3.75673022e+01
  2017.000   3.75130573e+01
  2017.500   3.74589714e+01
  2018.000   3.74050439e+01
  2018.500   3.73512741e+01
  2019.000   3.72976612e+01
  2019.500   3.72442046e+01
  2020.000   3.71909035e+01
  2020.500   3.71377573e+01
  2021.000   3.70847652e+01
  2021.500   3.70319266e+01
  2022.000   3.69792409e+01
  2022.500   3.69267073e+01
  2023.000   3.68743252e+01
  2023.500   3.68220939e+01
  2024.000   3.67700127e+01
  2024.500   3.67180810e+01
  2025.000   3.66662981e+01
  2025.500   3.66146635e+01
  2026.000   3.65631763e+01
  2026.500   3.65118361e+01
  2027.000   3.64606421e+01
  2027.500   3.64095937e+01
  2028.000   3.63586903e+01
  2028.500   3.63079313e+01
  2029.000   3.62573160e+01
  2029.500   3.62068438e+01
  2030.000   3.61565141e+01
  2030.500   3.61063263e+01
  2031.000   3.60562798e+01
  2031.500   3.60063740e+01
  2032.000   3.59566082e+01
  2032.500   3.59069819e+01
  2033.000   3.58574945e+01
  2033.500   3.58081453e+01
  2034.000   3.57589339e+01
  2034.500   3.57098595e+01
  2035.000   3.56609217e+01
  2035.500   3.56121198e+01
  2036.000   3.55634533e+01
  2036.500   3.55149216e+01
  2037.000   3.54665242e+01
  2037.500   3.54182604e+01
  2038.000   3.53701297e+01
  2038.500   3.53221316e+01
  2039.000   3.52742654e+01
  2039.500   3.52265307e+01
  2040.000   3.51789269e+01
  2040.500   3.51314535e+01
  2041.000   3.50841098e+01
  2041.500   3.50368954e+01
  2042.000   3.49898098e+01
  2042.500   3.49428523e+01
  2043.000   3.48960225e+01
  2043.500   3.48493198e+01
  2044.000   3.48027437e+01
  2044.500   3.47562938e+01
  2045.000   3.47099694e+01
  2045.500   3.46637700e+01
  2046.000   3.46176952e+01
  2046.500   3.45717444e+01
  2047.000   3.45259171e+01
  2047.500   3.44802129e+01
  2048.000   3.44346312e+01
  2048.500   3.43891714e+01
  2049.000   3.43438333e+01
  2049.500   3.42986161e+01
  2050.000   3.42535195e+01
  2050.500   3.42085429e+01
  2051.000   3.41636859e+01
  2051.500   3.41189479e+01
  2052.000   3.40743286e+01
  2052.500   3.40298274e+01
  2053.000   3.39854438e+01
  2053.500   3.39411774e+01
  2054.000   3.38970278e+01
  2054.500   3.38529943e+01
  2055.000   3.38090767e+01
  2055.500   3.37652743e+01
  2056.000   3.37215868e+01
  2056.500   3.36780137e+01
  2057.000   3.36345546e+01
  2057.500   3.35912089e+01
  2058.000   3.35479763e+01
  2058.500   3.35048563e+01
  2059.000   3.34618484e+01
  2059.500   3.34189522e+01
  2060.000   3.33761673e+01
  2060.500   3.33334933e+01
  2061.000   3.32909296e+01
  2061.500   3.32484759e+01
  2062.000   3.32061317e+01
  2062.500   3.31638966e+01
  2063.000   3.31217702e+01
  2063.500   3.30797521e+01
  2064.000   3.30378417e+01
  2064.500   3.29960388e+01
  2065.000   3.29543429e+01
  2065.500   3.29127536e+01
  2066.000   3.28712705e+01
  2066.500   3.28298931e+01
  2067.000   3.27886210e+01
  2067.500   3.27474539e+01
  2068.000   3.27063913e+01
  2068.500   3.26654329e+01
  2069.000   3.26245782e+01
  2069.500   3.25838269e+01
  2070.000   3.25431785e+01
  2070.500   3.25026326e+01
  2071.000   3.24621889e+01
  2071.500   3.24218470e+01
  2072.000   3.23816065e+01
  2072.500   3.23414670e+01
  2073.000   3.23014280e+01
  2073.500   3.22614894e+01
  2074.000   3.22216505e+01
  2074.500   3.21819112e+01
  2075.000   3.21422709e+01
  2075.500   3.21027294e+01
  2076.000   3.20632862e+01
  2076.500   3.20239410e+01
  2077.000   3.19846935e+01
  2077.500   3.19455431e+01
  2078.000   3.19064897e+01
  2078.500   3.18675328e+01
  2079.000   3.18286721e+01
  2079.500   3.17899072e+01
  2080.000   3.17512377e+01
  2080.500   3.17126633e+01
  2081.000   3.16741837e+01
  2081.500   3.16357984e+01
  2082.000   3.15975072e+01
  2082.500   3.15593097e+01
  2083.000   3.15212056e+01
  2083.500   3.14831944e+01
  2084.000   3.14452759e+01
  2084.500   3.14074497e+01
  2085.000   3.13697155e+01
  2085.500   3.13320730e+01
  2086.000   3.12945218e+01
  2086.500   3.12570615e+01
  2087.000   3.12196919e+01
  2087.500   3.11824126e+01
  2088.000   3.11452233e+01
  2088.500   3.11081236e+01
  2089.000   3.10711132e+01
  2089.500   3.10341919e+01
  2090.000   3.09973593e+01
  2090.500   3.09606150e+01
  2091.000   3.09239587e+01
  2091.500   3.08873902e+01
  2092.000   3.08509091e+01
  2092.500   3.08145151e+01
  2093.000   3.07782079e+01
  2093.500   3.07419871e+01
  2094.000   3.07058525e+01
  2094.500   3.06698037e+01
  2095.000   3.06338405e+01
  2095.500   3.05979626e+01
  2096.000   3.05621695e+01
  2096.500   3.05264611e+01
  2097.000   3.04908371e+01
  2097.500   3.04552970e+01
  2098.000   3.04198407e+01
  2098.500   3.03844679e+01
  2099.000   3.03491781e+01
  2099.500   3.03139713e+01
  2100.000   3.02788469e+01
  2100.500   3.02438049e+01
  2101.000   3.02088448e+01
  2101.500   3.01739664e+01
  2102.000   3.01391694e+01
  2102.500   3.01044535e+01
  2103.000   3.00698185e+01
  2103.500   3.00352640e+01
  2104.000   3.00007898e+01
  2104.500   2.99663955e+01
  2105.000   2.99320810e+01
  2105.500   2.98978459e+01
  2106.000   2.98636900e+01
  2106.500   2.98296129e+01
  2107.000   2.97956144e+01
  2107.500   2.97616943e+01
  2108.000   2.97278523e+01
  2108.500   2.96940880e+01
  2109.000   2.96604013e+01
  2109.500   2.96267918e+01
  2110.000   2.95932593e+01
  2110.500   2.95598036e+01
  2111.000   2.95264243e+01
  2111.500   2.94931212e+01
  2112.000   2.94598941e+01
  2112.500   2.94267426e+01
  2113.000   2.93936666e+01
  2113.500   2.93606658e+01
  2114.000   2.93277398e+01
  2114.500   2.92948885e+01
  2115.000   2.92621117e+01
  2115.500   2.92294089e+01
  2116.000   2.91967801e+01
  2116.500   2.91642250e+01
  2117.000   2.91317432e+01
  2117.500   2.90993346e+01
  2118.000   2.90669989e+01
  2118.500   2.90347359e+01
  2119.000   2.90025453e+01
  2119.500   2.89704268e+01
  2120.000   2.89383803e+01
  2120.500   2.89064055e+01
  2121.000   2.88745022e+01
  2121.500   2.88426700e+01
  2122.000   2.88109089e+01
  2122.500   2.87792184e+01
  2123.000   2.87475985e+01
  2123.500   2.87160489e+01
  2124.000   2.86845693e+01
  2124.500   2.86531595e+01
  2125.000   2.86218193e+01
  2125.500   2.85905484e+01
  2126.000   2.85593466e+01
  2126.500   2.85282138e+01
  2127.000   2.84971496e+01
  2127.500   2.84661538e+01
  2128.000   2.84352262e+01
  2128.500   2.84043666e+01
  2129.000   2.83735748e+01
  2129.500   2.83428506e+01
  2130.000   2.83121936e+01
  2130.500   2.82816038e+01
  2131.000   2.82510808e+01
  2131.500   2.82206245e+01
  2132.000   2.81902346e+01
  2132.500   2.81599110e+01
  2133.000   2.81296534e+01
  2133.500   2.80994616e+01
  2134.000   2.80693354e+01
  2134.500   2.80392745e+01
  2135.000   2.80092789e+01
  2135.500   2.79793481e+01
  2136.000   2.79494822e+01
  2136.500   2.79196807e+01
  2137.000   2.78899436e+01
  2137.500   2.78602706e+01
  2138.000   2.78306616e+01
  2138.500   2.78011162e+01
  2139.000   2.77716344e+01
  2139.500   2.77422159e+01
  2140.000   2.77128604e+01
  2140.500   2.76835679e+01
  2141.000   2.76543381e+01
  2141.500   2.76251708e+01
  2142.000   2.75960658e+01
  2142.500   2.75670229e+01
  2143.000   2.75380419e+01
  2143.500   2.75091226e+01
  2144.000   2.74802648e+01
  2144.500   2.74514684e+01
  2145.000   2.74227331e+01
  2145.500   2.73940587e+01
  2146.000   2.73654451e+01
  2146.500   2.73368921e+01
  2147.000   2.73083994e+01
  2147.500   2.72799669e+01
  2148.000   2.72515944e+01
  2148.500   2.72232816e+01
  2149.000   2.71950285e+01
  2149.500   2.71668349e+01
  2150.000   2.71387004e+01
  2150.500   2.71106251e+01
  2151.000   2.70826086e+01
  2151.500   2.70546508e+01
  2152.000   2.70267515e+01
  2152.500   2.69989105e+01
  2153.000   2.69711277e+01
  2153.500   2.69434029e+01
  2154.000   2.69157358e+01
  2154.500   2.68881264e+01
  2155.000   2.68605744e+01
  2155.500   2.68330797e+01
  2156.000   2.68056420e+01
  2156.500   2.67782612e+01
  2157.000   2.67509372e+01
  2157.500   2.67236698e+01
  2158.000   2.66964587e+01
  2158.500   2.66693038e+01
  2159.000   2.66422050e+01
  2159.500   2.66151621e+01
  2160.000   2.65881748e+01
  2160.500   2.65612431e+01
  2161.000   2.65343668e+01
  2161.500   2.65075457e+01
  2162.000   2.64807795e+01
  2162.500   2.64540683e+01
  2163.000   2.64274117e+01
  2163.500   2.64008097e+01
  2164.000   2.63742620e+01
  2164.500   2.63477686e+01
  2165.000   2.63213292e+01
  2165.500   2.62949436e+01
  2166.000   2.62686118e+01
  2166.500   2.62423336e+01
  2167.000   2.62161087e+01
  2167.500   2.61899371e+01
  2168.000   2.61638185e+01
  2168.500   2.61377529e+01
  2169.000   2.61117400e+01
  2169.500   2.60857797e+01
  2170.000   2.60598719e+01
  2170.500   2.60340163e+01
  2171.000   2.60082129e+01
  2171.500   2.59824615e+01
  2172.000   2.59567619e+01
  2172.500   2.59311140e+01
  2173.000   2.59055176e+01
  2173.500   2.58799726e+01
  2174.000   2.58544788e+01
  2174.500   2.58290360e+01
  2175.000   2.58036442e+01
  2175.500   2.57783031e+01
  2176.000   2.57530127e+01
  2176.500   2.57277727e+01
  2177.000   2.57025831e+01
  2177.500   2.56774436e+01
  2178.000   2.56523542e+01
  2178.500   2.56273146e+01
  2179.000   2.56023248e+01
  2179.500   2.55773846e+01
  2180.000   2.55524938e+01
  2180.500   2.55276524e+01
  2181.000   2.55028600e+01
  2181.500   2.54781168e+01
  2182.000   2.54534224e+01
  2182.500   2.54287767e+01
  2183.000   2.54041796e+01
  2183.500   2.53796310e+01
  2184.000   2.53551307e+01
  2184.500   2.53306786e+01
  2185.000   2.53062745e+01
  2185.500   2.52819183e+01
  2186.000   2.52576099e+01
  2186.500   2.52333491e+01
  2187.000   2.52091358e+01
  2187.500   2.51849699e+01
  2188.000   2.51608512e+01
  2188.500   2.51367795e+01
  2189.000   2.51127548e+01
  2189.500   2.50887770e+01
  2190.000   2.50648458e+01
  2190.500   2.50409612e+01
  2191.000   2.50171230e+01
  2191.500   2.49933310e+01
  2192.000   2.49695853e+01
  2192.500   2.49458855e+01
  2193.000   2.49222317e+01
  2193.500   2.48986236e+01
  2194.000   2.48750612e+01
  2194.500   2.48515443e+01
  2195.000   2.48280728e+01
  2195.500   2.48046465e+01
  2196.000   2.47812653e+01
  2196.500   2.47579292e+01
  2197.000   2.47346379e+01
  2197.500   2.47113914e+01
  2198.000   2.46881895e+01
  2198.500   2.46650321e+01
  2199.000   2.46419191e+01
  2199.500   2.46188503e+01
  2200.000   2.45958257e+01
  2200.500   2.45728451e+01
  2201.000   2.45499084e+01
  2201.500   2.45270154e+01
  2202.000   2.45041661e+01
  2202.500   2.44813603e+01
  2203.000   2.44585979e+01
  2203.500   2.44358788e+01
  2204.000   2.44132028e+01
  2204.500   2.43905699e+01
  2205.000   2.43679799e+01
  2205.500   2.43454328e+01
  2206.000   2.43229283e+01
  2206.500   2.43004664e+01
  2207.000   2.42780470e+01
  2207.500   2.42556699e+01
  2208.000   2.42333350e+01
  2208.500   2.42110423e+01
  2209.000   2.41887915e+01
  2209.500   2.41665826e+01
  2210.000   2.41444155e+01
  2210.500   2.41222901e+01
  2211.000   2.41002062e+01
  2211.500   2.40781637e+01
  2212.000   2.40561625e+01
  2212.500   2.40342026e+01
  2213.000   2.40122837e+01
  2213.500   2.39904059e+01
  2214.000   2.39685689e+01
  2214.500   2.39467726e+01
  2215.000   2.39250170e+01
  2215.500   2.39033020e+01
  2216.000   2.38816274e+01
  2216.500   2.38599931e+01
  2217.000   2.38383991e+01
  2217.500   2.38168452e+01
  2218.000   2.37953312e+01
  2218.500   2.37738572e+01
  2219.000   2.37524229e+01
  2219.500   2.37310284e+01
  2220.000   2.37096734e+01
  2220.500   2.36883579e+01
  2221.000   2.36670818e+01
  2221.500   2.36458449e+01
  2222.000   2.36246472e+01
  2222.500   2.36034886e+01
  2223.000   2.35823689e+01
  2223.500   2.35612881e+01
  2224.000   2.35402460e+01
  2224.500   2.35192426e+01
  2225.000   2.34982777e+01
  2225.500   2.34773512e+01
  2226.000   2.34564632e+01
  2226.500   2.34356133e+01
  2227.000   2.34148016e+01
  2227.500   2.33940279e+01
  2228.000   2.33732922e+01
  2228.500   2.33525943e+01
  2229.000   2.33319342e+01
  2229.500   2.33113117e+01
  2230.000   2.32907268e+01
  2230.500   2.32701794e+01
  2231.000   2.32496692e+01
  2231.500   2.32291964e+01
  2232.000   2.32087607e+01
  2232.500   2.31883621e+01
  2233.000   2.31680004e+01
  2233.500   2.31476756e+01
  2234.000   2.31273876e+01
  2234.500   2.31071363e+01
  2235.000   2.30869216e+01
  2235.500   2.30667433e+01
  2236.000   2.30466015e+01
  2236.500   2.30264960e+01
  2237.000   2.30064267e+01
  2237.500   2.29863935e+01
  2238.000   2.29663964e+01
  2238.500   2.29464352e+01
  2239.000   2.29265098e+01
  2239.500   2.29066202e+01
  2240.000   2.28867663e+01
  2240.500   2.28669479e+01
  2241.000   2.28471650e+01
  2241.500   2.28274175e+01
  2242.000   2.28077054e+01
  2242.500   2.27880284e+01
  2243.000   2.27683866e+01
  2243.500   2.27487798e+01
  2244.000   2.27292079e+01
  2244.500   2.27096709e+01
  2245.000   2.26901687e+01
  2245.500   2.26707012e+01
  2246.000   2.26512682e+01
  2246.500   2.26318698e+01
  2247.000   2.26125058e+01
  2247.500   2.25931761e+01
  2248.000   2.25738807e+01
  2248.500   2.25546195e+01
  2249.000   2.25353923e+01
  2249.500   2.25161991e+01
  2250.000   2.24970399e+01
  2250.500   2.24779145e+01
  2251.000   2.24588228e+01
  2251.500   2.24397648e+01
  2252.000   2.24207403e+01
  2252.500   2.24017494e+01
  2253.000   2.23827918e+01
  2253.500   2.23638676e+01
  2254.000   2.23449766e+01
  2254.500   2.23261188e+01
  2255.000   2.23072941e+01
  2255.500   2.22885023e+01
  2256.000   2.22697435e+01
  2256.500   2.22510176e+01
  2257.000   2.22323243e+01
  2257.500   2.22136638e+01
  2258.000   2.21950359e+01
  2258.500   2.21764404e+01
  2259.000   2.21578774e+01
  2259.500   2.21393468e+01
  2260.000   2.21208485e+01
  2260.500   2.21023823e+01
  2261.000   2.20839483e+01
  2261.500   2.20655463e+01
  2262.000   2.20471763e+01
  2262.500   2.20288382e+01
  2263.000   2.20105318e+01
  2263.500   2.19922573e+01
  2264.000   2.19740143e+01
  2264.500   2.19558030e+01
  2265.000   2.19376232e+01
  2265.500   2.19194748e+01
  2266.000   2.19013577e+01
  2266.500   2.18832719e+01
  2267.000   2.18652174e+01
  2267.500   2.18471939e+01
  2268.000   2.18292015e+01
  2268.500   2.18112401e+01
  2269.000   2.17933096e+01
  2269.500   2.17754099e+01
  2270.000   2.17575410e+01
  2270.500   2.17397028e+01
  2271.000   2.17218952e+01
  2271.500   2.17041181e+01
  2272.000   2.16863715e+01
  2272.500   2.16686553e+01
  2273.000   2.16509694e+01
  2273.500   2.16333137e+01
  2274.000   2.16156883e+01
  2274.500   2.15980929e+01
  2275.000   2.15805276e+01
  2275.500   2.15629922e+01
  2276.000   2.15454868e+01
  2276.500   2.15280111e+01
  2277.000   2.15105653e+01
  2277.500   2.14931491e+01
  2278.000   2.14757625e+01
  2278.500   2.14584055e+01
  2279.000   2.14410779e+01
  2279.500   2.14237797e+01
  2280.000   2.14065109e+01
  2280.500   2.13892714e+01
  2281.000   2.13720610e+01
  2281.500   2.13548798e+01
  2282.000   2.13377277e+01
  2282.500   2.13206046e+01
  2283.000   2.13035104e+01
  2283.500   2.12864450e+01
  2284.000   2.12694085e+01
  2284.500   2.12524007e+01
  2285.000   2.12354215e+01
  2285.500   2.12184710e+01
  2286.000   2.12015489e+01
  2286.500   2.11846554e+01
  2287.000   2.11677903e+01
  2287.500   2.11509534e+01
  2288.000   2.11341449e+01
  2288.500   2.11173646e+01
  2289.000   2.11006124e+01
  2289.500   2.10838883e+01
  2290.000   2.10671922e+01
  2290.500   2.10505241e+01
  2291.000   2.10338838e+01
  2291.500   2.10172714e+01
  2292.000   2.10006867e+01
  2292.500   2.09841297e+01
  2293.000   2.09676004e+01
  2293.500   2.09510986e+01
  2294.000   2.09346243e+01
  2294.500   2.09181775e+01
  2295.000   2.09017581e+01
  2295.500   2.08853660e+01
  2296.000   2.08690011e+01
  2296.500   2.08526635e+01
  2297.000   2.08363530e+01
  2297.500   2.08200695e+01
  2298.000   2.08038131e+01
  2298.500   2.07875837e+01
  2299.000   2.07713811e+01
  2299.500   2.07552054e+01
  2300.000   2.07390564e+01
  2300.500   2.07229342e+01
  2301.000   2.07068386e+01
  2301.500   2.06907697e+01
  2302.000   2.06747272e+01
  2302.500   2.06587113e+01
  2303.000   2.06427217e+01
  2303.500   2.06267585e+01
  2304.000   2.06108217e+01
  2304.500   2.05949110e+01
  2305.000   2.05790266e+01
  2305.500   2.05631683e+01
  2306.000   2.05473361e+01
  2306.500   2.05315298e+01
  2307.000   2.05157496e+01
  2307.500   2.04999952e+01
  2308.000   2.04842667e+01
  2308.500   2.04685639e+01
  2309.000   2.04528869e+01
  2309.500   2.04372356e+01
  2310.000   2.04216099e+01
  2310.500   2.04060098e+01
  2311.000   2.03904351e+01
  2311.500   2.03748859e+01
  2312.000   2.03593621e+01
  2312.500   2.03438637e+01
  2313.000   2.03283905e+01
  2313.500   2.03129426e+01
  2314.000   2.02975198e+01
  2314.500   2.02821222e+01
  2315.000   2.02667496e+01
  2315.500   2.02514020e+01
  2316.000   2.02360795e+01
  2316.500   2.02207818e+01
  2317.000   2.02055089e+01
  2317.500   2.01902609e+01
  2318.000   2.01750376e+01
  2318.500   2.01598390e+01
  2319.000   2.01446650e+01
  2319.500   2.01295157e+01
  2320.000   2.01143908e+01
  2320.500   2.00992905e+01
  2321.000   2.00842146e+01
  2321.500   2.00691630e+01
  2322.000   2.00541358e+01
  2322.500   2.00391329e+01
  2323.000   2.00241541e+01
  2323.500   2.00091996e+01
  2324.000   1.99942692e+01
  2324.500   1.99793628e+01
  2325.000   1.99644805e+01
  2325.500   1.99496221e+01
  2326.000   1.99347877e+01
  2326.500   1.99199771e+01
  2327.000   1.99051904e+01
  2327.500   1.98904274e+01
  2328.000   1.98756881e+01
  2328.500   1.98609725e+01
  2329.000   1.98462805e+01
  2329.500   1.98316121e+01
  2330.000   1.98169672e+01
  2330.500   1.98023458e+01
  2331.000   1.97877478e+01
  2331.500   1.97731732e+01
  2332.000   1.97586219e+01
  2332.500   1.97440939e+01
  2333.000   1.97295891e+01
  2333.500   1.97151075e+01
  2334.000   1.97006490e+01
  2334.500   1.96862136e+01
  2335.000   1.96718013e+01
  2335.500   1.96574119e+01
  2336.000   1.96430455e+01
  2336.500   1.96287020e+01
  2337.000   1.96143813e+01
  2337.500   1.96000835e+01
  2338.000   1.95858083e+01
  2338.500   1.95715559e+01
  2339.000   1.95573262e+01
  2339.500   1.95431191e+01
  2340.000   1.95289345e+01
  2340.500   1.95147725e+01
  2341.000   1.95006330e+01
  2341.500   1.94865159e+01
  2342.000   1.94724212e+01
  2342.500   1.94583488e+01
  2343.000   1.94442987e+01
  2343.500   1.94302709e+01
  2344.000   1.94162653e+01
  2344.500   1.94022818e+01
  2345.000   1.93883205e+01
  2345.500   1.93743812e+01
  2346.000   1.93604640e+01
  2346.500   1.93465687e+01
  2347.000   1.93326954e+01
  2347.500   1.93188440e+01
  2348.000   1.93050145e+01
  2348.500   1.92912067e+01
  2349.000   1.92774208e+01
  2349.500   1.92636565e+01
  2350.000   1.92499140e+01
  2350.500   1.92361930e+01
  2351.000   1.92224937e+01
  2351.500   1.92088159e+01
  2352.000   1.91951597e+01
  2352.500   1.91815249e+01
  2353.000   1.91679115e+01
  2353.500   1.91543195e+01
  2354.000   1.91407488e+01
  2354.500   1.91271995e+01
  2355.000   1.91136714e+01
  2355.500   1.91001645e+01
  2356.000   1.90866788e+01
  2356.500   1.90732142e+01
  2357.000   1.90597707e+01
  2357.500   1.90463483e+01
  2358.000   1.90329469e+01
  2358.500   1.90195664e+01
  2359.000   1.90062069e+01
  2359.500   1.89928683e+01
  2360.000   1.89795505e+01
  2360.500   1.89662535e+01
  2361.000   1.89529773e+01
  2361.500   1.89397218e+01
  2362.000   1.89264870e+01
  2362.500   1.89132728e+01
  2363.000   1.89000793e+01
  2363.500   1.88869063e+01
  2364.000   1.88737538e+01
  2364.500   1.88606219e+01
  2365.000   1.88475104e+01
  2365.500   1.88344193e+01
  2366.000   1.88213485e+01
  2366.500   1.88082981e+01
  2367.000   1.87952680e+01
  2367.500   1.87822582e+01
  2368.000   1.87692685e+01
  2368.500   1.87562991e+01
  2369.000   1.87433498e+01
  2369.500   1.87304206e+01
  2370.000   1.87175114e+01
  2370.500   1.87046223e+01
  2371.000   1.86917532e+01
  2371.500   1.86789040e+01
  2372.000   1.86660747e+01
  2372.500   1.86532654e+01
  2373.000   1.86404758e+01
  2373.500   1.86277061e+01
  2374.000   1.86149561e+01
  2374.500   1.86022259e+01
  2375.000   1.85895153e+01
  2375.500   1.85768244e+01
  2376.000   1.85641531e+01
  2376.500   1.85515015e+01
  2377.000   1.85388693e+01
  2377.500   1.85262567e+01
  2378.000   1.85136635e+01
  2378.500   1.85010898e+01
  2379.000   1.84885355e+01
  2379.500   1.84760006e+01
  2380.000   1.84634849e+01
  2380.500   1.84509886e+01
  2381.000   1.84385116e+01
  2381.500   1.84260537e+01
  2382.000   1.84136151e+01
  2382.500   1.84011956e+01
  2383.000   1.83887953e+01
  2383.500   1.83764140e+01
  2384.000   1.83640518e+01
  2384.500   1.83517086e+01
  2385.000   1.83393844e+01
  2385.500   1.83270791e+01
  2386.000   1.83147927e+01
  2386.500   1.83025253e+01
  2387.000   1.82902766e+01
  2387.500   1.82780468e+01
  2388.000   1.82658358e+01
  2388.500   1.82536435e+01
  2389.000   1.82414699e+01
  2389.500   1.82293150e+01
  2390.000   1.82171788e+01
  2390.500   1.82050612e+01
  2391.000   1.81929621e+01
  2391.500   1.81808816e+01
  2392.000   1.81688196e+01
  2392.500   1.81567761e+01
  2393.000   1.81447510e+01
  2393.500   1.81327444e+01
  2394.000   1.81207561e+01
  2394.500   1.81087862e+01
  2395.000   1.80968346e+01
  2395.500   1.80849013e+01
  2396.000   1.80729862e+01
  2396.500   1.80610894e+01
  2397.000   1.80492107e+01
  2397.500   1.80373502e+01
  2398.000   1.80255079e+01
  2398.500   1.80136836e+01
  2399.000   1.80018774e+01
  2399.500   1.79900893e+01
  2400.000   1.79783191e+01
  2400.500   1.79665669e+01
  2401.000   1.79548327e+01
  2401.500   1.79431163e+01
  2402.000   1.79314179e+01
  2402.500   1.79197373e+01
  2403.000   1.79080745e+01
  2403.500   1.78964295e+01
  2404.000   1.78848022e+01
  2404.500   1.78731927e+01
  2405.000   1.78616009e+01
  2405.500   1.78500267e+01
  2406.000   1.78384702e+01
  2406.500   1.78269313e+01
  2407.000   1.78154099e+01
  2407.500   1.78039061e+01
  2408.000   1.77924198e+01
  2408.500   1.77809511e+01
  2409.000   1.77694997e+01
  2409.500   1.77580658e+01
  2410.000   1.77466493e+01
  2410.500   1.77352502e+01
  2411.000   1.77238684e+01
  2411.500   1.77125039e+01
  2412.000   1.77011567e+01
  2412.500   1.76898268e+01
  2413.000   1.76785141e+01
  2413.500   1.76672186e+01
  2414.000   1.76559403e+01
  2414.500   1.76446791e+01
  2415.000   1.76334350e+01
  2415.500   1.76222080e+01
  2416.000   1.76109981e+01
  2416.500   1.75998051e+01
  2417.000   1.75886292e+01
  2417.500   1.75774703e+01
  2418.000   1.75663283e+01
  2418.500   1.75552033e+01
  2419.000   1.75440951e+01
  2419.500   1.75330038e+01
  2420.000   1.75219293e+01
  2420.500   1.75108716e+01
  2421.000   1.74998307e+01
  2421.500   1.74888066e+01
  2422.000   1.74777992e+01
  2422.500   1.74668085e+01
  2423.000   1.74558345e+01
  2423.500   1.74448771e+01
  2424.000   1.74339364e+01
  2424.500   1.74230122e+01
  2425.000   1.74121046e+01
  2425.500   1.74012136e+01
  2426.000   1.73903390e+01
  2426.500   1.73794810e+01
  2427.000   1.73686394e+01
  2427.500   1.73578143e+01
  2428.000   1.73470056e+01
  2428.500   1.73362132e+01
  2429.000   1.73254373e+01
  2429.500   1.73146776e+01
  2430.000   1.73039343e+01
  2430.500   1.72932073e+01
  2431.000   1.72824965e+01
  2431.500   1.72718019e+01
  2432.000   1.72611236e+01
  2432.500   1.72504614e+01
  2433.000   1.72398154e+01
  2433.500   1.72291856e+01
  2434.000   1.72185718e+01
  2434.500   1.72079742e+01
  2435.000   1.71973925e+01
  2435.500   1.71868270e+01
  2436.000   1.71762774e+01
  2436.500   1.71657438e+01
  2437.000   1.71552262e+01
  2437.500   1.71447246e+01
  2438.000   1.71342388e+01
  2438.500   1.71237689e+01
  2439.000   1.71133149e+01
  2439.500   1.71028768e+01
  2440.000   1.70924544e+01
  2440.500   1.70820479e+01
  2441.000   1.70716571e+01
  2441.500   1.70612821e+01
  2442.000   1.70509228e+01
  2442.500   1.70405792e+01
  2443.000   1.70302513e+01
  2443.500   1.70199390e+01
  2444.000   1.70096424e+01
  2444.500   1.69993613e+01
  2445.000   1.69890959e+01
  2445.500   1.69788460e+01
  2446.000   1.69686117e+01
  2446.500   1.69583929e+01
  2447.000   1.69481895e+01
  2447.500   1.69380017e+01
  2448.000   1.69278293e+01
  2448.500   1.69176723e+01
  2449.000   1.69075307e+01
  2449.500   1.68974046e+01
  2450.000   1.68872937e+01
  2450.500   1.68771982e+01
  2451.000   1.68671181e+01
  2451.500   1.68570532e+01
  2452.000   1.68470036e+01
  2452.500   1.68369693e+01
  2453.000   1.68269501e+01
  2453.500   1.68169462e+01
  2454.000   1.68069575e+01
  2454.500   1.67969839e+01
  2455.000   1.67870255e+01
  2455.500   1.67770822e+01
  2456.000   1.67671541e+01
  2456.500   1.67572409e+01
  2457.000   1.67473429e+01
  2457.500   1.67374599e+01
  2458.000   1.67275919e+01
  2458.500   1.67177389e+01
  2459.000   1.67079009e+01
  2459.500   1.66980778e+01
  2460.000   1.66882697e+01
  2460.500   1.66784765e+01
  2461.000   1.66686982e+01
  2461.500   1.66589347e+01
  2462.000   1.66491862e+01
  2462.500   1.66394524e+01
  2463.000   1.66297335e+01
  2463.500   1.66200293e+01
  2464.000   1.66103400e+01
  2464.500   1.66006653e+01
  2465.000   1.65910055e+01
  2465.500   1.65813603e+01
  2466.000   1.65717298e+01
  2466.500   1.65621140e+01
  2467.000   1.65525129e+01
  2467.500   1.65429264e+01
  2468.000   1.65333545e+01
  2468.500   1.65237972e+01
  2469.000   1.65142545e+01
  2469.500   1.65047264e+01
  2470.000   1.64952127e+01
  2470.500   1.64857137e+01
  2471.000   1.64762291e+01
  2471.500   1.64667590e+01
  2472.000   1.64573034e+01
  2472.500   1.64478622e+01
  2473.000   1.64384354e+01
  2473.500   1.64290231e+01
  2474.000   1.64196251e+01
  2474.500   1.64102415e+01
  2475.000   1.64008723e+01
  2475.500   1.63915174e+01
  2476.000   1.63821768e+01
  2476.500   1.63728506e+01
  2477.000   1.63635386e+01
  2477.500   1.63542409e+01
  2478.000   1.63449574e+01
  2478.500   1.63356881e+01
  2479.000   1.63264331e+01
  2479.500   1.63171923e+01
  2480.000   1.63079656e+01
  2480.500   1.62987531e+01
  2481.000   1.62895547e+01
  2481.500   1.62803705e+01
  2482.000   1.62712004e+01
  2482.500   1.62620443e+01
  2483.000   1.62529024e+01
  2483.500   1.62437744e+01
  2484.000   1.62346606e+01
  2484.500   1.62255607e+01
  2485.000   1.62164749e+01
  2485.500   1.62074030e+01
  2486.000   1.61983451e+01
  2486.500   1.61893012e+01
  2487.000   1.61802712e+01
  2487.500   1.61712551e+01
  2488.000   1.61622530e+01
  2488.500   1.61532647e+01
  2489.000   1.61442903e+01
  2489.500   1.61353297e+01
  2490.000   1.61263830e+01
  2490.500   1.61174502e+01
  2491.000   1.61085311e+01
  2491.500   1.60996258e+01
  2492.000   1.60907343e+01
  2492.500   1.60818566e+01
  2493.000   1.60729926e+01
  2493.500   1.60641423e+01
  2494.000   1.60553058e+01
  2494.500   1.60464829e+01
  2495.000   1.60376738e+01
  2495.500   1.60288783e+01
  2496.000   1.60200965e+01
  2496.500   1.60113283e+01
  2497.000   1.60025737e+01
  2497.500   1.59938327e+01
  2498.000   1.59851053e+01
  2498.500   1.59763915e+01
  2499.000   1.59676913e+01
  2499.500   1.59590046e+01
  2500.000   1.59503315e+01
  2500.500   1.59416718e+01
  2501.000   1.59330257e+01
  2501.500   1.59243931e+01
  2502.000   1.59157739e+01
  2502.500   1.59071682e+01
  2503.000   1.58985760e+01
  2503.500   1.58899972e+01
  2504.000   1.58814318e+01
  2504.500   1.58728798e+01
  2505.000   1.58643412e+01
  2505.500   1.58558160e+01
  2506.000   1.58473041e+01
  2506.500   1.58388056e+01
  2507.000   1.58303204e+01
  2507.500   1.58218486e+01
  2508.000   1.58133901e+01
  2508.500   1.58049448e+01
  2509.000   1.57965128e+01
  2509.500   1.57880942e+01
  2510.000   1.57796887e+01
  2510.500   1.57712965e+01
  2511.000   1.57629176e+01
  2511.500   1.57545518e+01
  2512.000   1.57461993e+01
  2512.500   1.57378599e+01
  2513.000   1.57295337e+01
  2513.500   1.57212207e+01
  2514.000   1.57129208e+01
  2514.500   1.57046341e+01
  2515.000   1.56963605e+01
  2515.500   1.56881000e+01
  2516.000   1.56798526e+01
  2516.500   1.56716183e+01
  2517.000   1.56633971e+01
  2517.500   1.56551889e+01
  2518.000   1.56469938e+01
  2518.500   1.56388118e+01
  2519.000   1.56306427e+01
  2519.500   1.56224867e+01
  2520.000   1.56143437e+01
  2520.500   1.56062137e+01
  2521.000   1.55980966e+01
  2521.500   1.55899926e+01
  2522.000   1.55819014e+01
  2522.500   1.55738233e+01
  2523.000   1.55657580e+01
  2523.500   1.55577057e+01
  2524.000   1.55496663e+01
  2524.500   1.55416398e+01
  2525.000   1.55336262e+01
  2525.500   1.55256254e+01
  2526.000   1.55176375e+01
  2526.500   1.55096625e+01
  2527.000   1.55017003e+01
  2527.500   1.54937510e+01
  2528.000   1.54858145e+01
  2528.500   1.54778908e+01
  2529.000   1.54699799e+01
  2529.500   1.54620817e+01
  2530.000   1.54541964e+01
  2530.500   1.54463238e+01
  2531.000   1.54384640e+01
  2531.500   1.54306170e+01
  2532.000   1.54227826e+01
  2532.500   1.54149610e+01
  2533.000   1.54071521e+01
  2533.500   1.53993560e+01
  2534.000   1.53915725e+01
  2534.500   1.53838017e+01
  2535.000   1.53760436e+01
  2535.500   1.53682982e+01
  2536.000   1.53605654e+01
  2536.500   1.53528453e+01
  2537.000   1.53451378e+01
  2537.500   1.53374429e+01
  2538.000   1.53297606e+01
  2538.500   1.53220910e+01
  2539.000   1.53144340e+01
  2539.500   1.53067895e+01
  2540.000   1.52991577e+01
  2540.500   1.52915384e+01
  2541.000   1.52839317e+01
  2541.500   1.52763375e+01
  2542.000   1.52687559e+01
  2542.500   1.52611868e+01
  2543.000   1.52536303e+01
  2543.500   1.52460862e+01
  2544.000   1.52385547e+01
  2544.500   1.52310357e+01
  2545.000   1.52235292e+01
  2545.500   1.52160351e+01
  2546.000   1.52085536e+01
  2546.500   1.52010845e+01
  2547.000   1.51936279e+01
  2547.500   1.51861837e+01
  2548.000   1.51787520e+01
  2548.500   1.51713327e+01
  2549.000   1.51639258e+01
  2549.500   1.51565314e+01
  2550.000   1.51491493e+01
  2550.500   1.51417797e+01
  2551.000   1.51344225e+01
  2551.500   1.51270777e+01
  2552.000   1.51197452e+01
  2552.500   1.51124251e+01
  2553.000   1.51051174e+01
  2553.500   1.50978221e+01
  2554.000   1.50905391e+01
  2554.500   1.50832684e+01
  2555.000   1.50760101e+01
  2555.500   1.50687641e+01
  2556.000   1.50615305e+01
  2556.500   1.50543091e+01
  2557.000   1.50471001e+01
  2557.500   1.50399034e+01
  2558.000   1.50327189e+01
  2558.500   1.50255468e+01
  2559.000   1.50183869e+01
  2559.500   1.50112394e+01
  2560.000   1.50041041e+01
  2560.500   1.49969810e+01
  2561.000   1.49898703e+01
  2561.500   1.49827717e+01
  2562.000   1.49756854e+01
  2562.500   1.49686114e+01
  2563.000   1.49615496e+01
  2563.500   1.49545000e+01
  2564.000   1.49474627e+01
  2564.500   1.49404375e+01
  2565.000   1.49334246e+01
  2565.500   1.49264239e+01
  2566.000   1.49194353e+01
  2566.500   1.49124590e+01
  2567.000   1.49054949e+01
  2567.500   1.48985429e+01
  2568.000   1.48916031e+01
  2568.500   1.48846755e+01
  2569.000   1.48777601e+01
  2569.500   1.48708568e+01
  2570.000   1.48639656e+01
  2570.500   1.48570867e+01
  2571.000   1.48502198e+01
  2571.500   1.48433652e+01
  2572.000   1.48365226e+01
  2572.500   1.48296922e+01
  2573.000   1.48228739e+01
  2573.500   1.48160678e+01
  2574.000   1.48092737e+01
  2574.500   1.48024918e+01
  2575.000   1.47957220e+01
  2575.500   1.47889643e+01
  2576.000   1.47822187e+01
  2576.500   1.47754852e+01
  2577.000   1.47687638e+01
  2577.500   1.47620544e+01
  2578.000   1.47553572e+01
  2578.500   1.47486721e+01
  2579.000   1.47419990e+01
  2579.500   1.47353380e+01
  2580.000   1.47286891e+01
  2580.500   1.47220522e+01
  2581.000   1.47154274e+01
  2581.500   1.47088147e+01
  2582.000   1.47022140e+01
  2582.500   1.46956254e+01
  2583.000   1.46890488e+01
  2583.500   1.46824843e+01
  2584.000   1.46759318e+01
  2584.500   1.46693914e+01
  2585.000   1.46628630e+01
  2585.500   1.46563467e+01
  2586.000   1.46498424e+01
  2586.500   1.46433501e+01
  2587.000   1.46368698e+01
  2587.500   1.46304016e+01
  2588.000   1.46239454e+01
  2588.500   1.46175012e+01
  2589.000   1.46110691e+01
  2589.500   1.46046489e+01
  2590.000   1.45982408e+01
  2590.500   1.45918447e+01
  2591.000   1.45854606e+01
  2591.500   1.45790885e+01
  2592.000   1.45727284e+01
  2592.500   1.45663804e+01
  2593.000   1.45600443e+01
  2593.500   1.45537202e+01
  2594.000   1.45474082e+01
  2594.500   1.45411081e+01
  2595.000   1.45348201e+01
  2595.500   1.45285440e+01
  2596.000   1.45222799e+01
  2596.500   1.45160279e+01
  2597.000   1.45097878e+01
  2597.500   1.45035597e+01
  2598.000   1.44973436e+01
  2598.500   1.44911396e+01
  2599.000   1.44849475e+01
  2599.500   1.44787673e+01
  2600.000   1.44725992e+01
  2600.500   1.44664431e+01
  2601.000   1.44602990e+01
  2601.500   1.44541668e+01
  2602.000   1.44480467e+01
  2602.500   1.44419385e+01
  2603.000   1.44358423e+01
  2603.500   1.44297581e+01
  2604.000   1.44236860e+01
  2604.500   1.44176257e+01
  2605.000   1.44115775e+01
  2605.500   1.44055413e+01
  2606.000   1.43995171e+01
  2606.500   1.43935048e+01
  2607.000   1.43875046e+01
  2607.500   1.43815163e+01
  2608.000   1.43755401e+01
  2608.500   1.43695758e+01
  2609.000   1.43636235e+01
  2609.500   1.43576833e+01
  2610.000   1.43517550e+01
  2610.500   1.43458387e+01
  2611.000   1.43399344e+01
  2611.500   1.43340422e+01
  2612.000   1.43281619e+01
  2612.500   1.43222936e+01
  2613.000   1.43164374e+01
  2613.500   1.43105931e+01
  2614.000   1.43047609e+01
  2614.500   1.42989406e+01
  2615.000   1.42931324e+01
  2615.500   1.42873362e+01
  2616.000   1.42815520e+01
  2616.500   1.42757799e+01
  2617.000   1.42700197e+01
  2617.500   1.42642716e+01
  2618.000   1.42585355e+01
  2618.500   1.42528115e+01
  2619.000   1.42470995e+01
  2619.500   1.42413995e+01
  2620.000   1.42357115e+01
  2620.500   1.42300356e+01
  2621.000   1.42243717e+01
  2621.500   1.42187199e+01
  2622.000   1.42130802e+01
  2622.500   1.42074525e+01
  2623.000   1.42018368e+01
  2623.500   1.41962332e+01
  2624.000   1.41906417e+01
  2624.500   1.41850622e+01
  2625.000   1.41794948e+01
  2625.500   1.41739395e+01
  2626.000   1.41683963e+01
  2626.500   1.41628651e+01
  2627.000   1.41573461e+01
  2627.500   1.41518391e+01
  2628.000   1.41463442e+01
  2628.500   1.41408615e+01
  2629.000   1.41353908e+01
  2629.500   1.41299322e+01
  2630.000   1.41244858e+01
  2630.500   1.41190515e+01
  2631.000   1.41136293e+01
  2631.500   1.41082192e+01
  2632.000   1.41028213e+01
  2632.500   1.40974355e+01
  2633.000   1.40920618e+01
  2633.500   1.40867003e+01
  2634.000   1.40813510e+01
  2634.500   1.40760138e+01
  2635.000   1.40706888e+01
  2635.500   1.40653759e+01
  2636.000   1.40600753e+01
  2636.500   1.40547868e+01
  2637.000   1.40495105e+01
  2637.500   1.40442464e+01
  2638.000   1.40389945e+01
  2638.500   1.40337548e+01
  2639.000   1.40285273e+01
  2639.500   1.40233121e+01
  2640.000   1.40181091e+01
  2640.500   1.40129183e+01
  2641.000   1.40077397e+01
  2641.500   1.40025734e+01
  2642.000   1.39974194e+01
  2642.500   1.39922776e+01
  2643.000   1.39871481e+01
  2643.500   1.39820309e+01
  2644.000   1.39769259e+01
  2644.500   1.39718333e+01
  2645.000   1.39667529e+01
  2645.500   1.39616849e+01
  2646.000   1.39566292e+01
  2646.500   1.39515858e+01
  2647.000   1.39465547e+01
  2647.500   1.39415360e+01
  2648.000   1.39365296e+01
  2648.500   1.39315356e+01
  2649.000   1.39265539e+01
  2649.500   1.39215846e+01
  2650.000   1.39166277e+01
  2650.500   1.39116832e+01
  2651.000   1.39067511e+01
  2651.500   1.39018314e+01
  2652.000   1.38969241e+01
  2652.500   1.38920293e+01
  2653.000   1.38871468e+01
  2653.500   1.38822769e+01
  2654.000   1.38774194e+01
  2654.500   1.38725743e+01
  2655.000   1.38677417e+01
  2655.500   1.38629217e+01
  2656.000   1.38581141e+01
  2656.500   1.38533190e+01
  2657.000   1.38485364e+01
  2657.500   1.38437664e+01
  2658.000   1.38390089e+01
  2658.500   1.38342639e+01
  2659.000   1.38295315e+01
  2659.500   1.38248117e+01
  2660.000   1.38201044e+01
  2660.500   1.38154098e+01
  2661.000   1.38107277e+01
  2661.500   1.38060583e+01
  2662.000   1.38014015e+01
  2662.500   1.37967573e+01
  2663.000   1.37921258e+01
  2663.500   1.37875069e+01
  2664.000   1.37829007e+01
  2664.500   1.37783072e+01
  2665.000   1.37737264e+01
  2665.500   1.37691583e+01
  2666.000   1.37646029e+01
  2666.500   1.37600603e+01
  2667.000   1.37555304e+01
  2667.500   1.37510133e+01
  2668.000   1.37465089e+01
  2668.500   1.37420173e+01
  2669.000   1.37375385e+01
  2669.500   1.37330726e+01
  2670.000   1.37286194e+01
  2670.500   1.37241791e+01
  2671.000   1.37197517e+01
  2671.500   1.37153371e+01
  2672.000   1.37109354e+01
  2672.500   1.37065466e+01
  2673.000   1.37021707e+01
  2673.500   1.36978077e+01
  2674.000   1.36934577e+01
  2674.500   1.36891206e+01
  2675.000   1.36847965e+01
  2675.500   1.36804853e+01
  2676.000   1.36761872e+01
  2676.500   1.36719021e+01
  2677.000   1.36676300e+01
  2677.500   1.36633709e+01
  2678.000   1.36591249e+01
  2678.500   1.36548920e+01
  2679.000   1.36506722e+01
  2679.500   1.36464654e+01
  2680.000   1.36422718e+01
  2680.500   1.36380914e+01
  2681.000   1.36339240e+01
  2681.500   1.36297699e+01
  2682.000   1.36256290e+01
  2682.500   1.36215012e+01
  2683.000   1.36173867e+01
  2683.500   1.36132854e+01
  2684.000   1.36091974e+01
  2684.500   1.36051226e+01
  2685.000   1.36010611e+01
  2685.500   1.35970130e+01
  2686.000   1.35929782e+01
  2686.500   1.35889567e+01
  2687.000   1.35849485e+01
  2687.500   1.35809538e+01
  2688.000   1.35769725e+01
  2688.500   1.35730045e+01
  2689.000   1.35690501e+01
  2689.500   1.35651090e+01
  2690.000   1.35611815e+01
  2690.500   1.35572674e+01
  2691.000   1.35533669e+01
  2691.500   1.35494798e+01
  2692.000   1.35456064e+01
  2692.500   1.35417465e+01
  2693.000   1.35379002e+01
  2693.500   1.35340675e+01
  2694.000   1.35302484e+01
  2694.500   1.35264430e+01
  2695.000   1.35226513e+01
  2695.500   1.35188733e+01
  2696.000   1.35151090e+01
  2696.500   1.35113584e+01
  2697.000   1.35076216e+01
  2697.500   1.35038985e+01
  2698.000   1.35001893e+01
  2698.500   1.34964939e+01
  2699.000   1.34928123e+01
  2699.500   1.34891446e+01
  2700.000   1.34854908e+01
  2700.500   1.34818509e+01
  2701.000   1.34782249e+01
  2701.500   1.34746129e+01
  2702.000   1.34710148e+01
  2702.500   1.34674308e+01
  2703.000   1.34638608e+01
  2703.500   1.34603049e+01
  2704.000   1.34567630e+01
  2704.500   1.34532352e+01
  2705.000   1.34497215e+01
  2705.500   1.34462220e+01
  2706.000   1.34427367e+01
  2706.500   1.34392655e+01
  2707.000   1.34358086e+01
  2707.500   1.34323659e+01
  2708.000   1.34289375e+01
  2708.500   1.34255234e+01
  2709.000   1.34221236e+01
  2709.500   1.34187381e+01
  2710.000   1.34153670e+01
  2710.500   1.34120104e+01
  2711.000   1.34086681e+01
  2711.500   1.34053403e+01
  2712.000   1.34020270e+01
  2712.500   1.33987281e+01
  2713.000   1.33954438e+01
  2713.500   1.33921741e+01
  2714.000   1.33889189e+01
  2714.500   1.33856784e+01
  2715.000   1.33824525e+01
  2715.500   1.33792413e+01
  2716.000   1.33760447e+01
  2716.500   1.33728629e+01
  2717.000   1.33696959e+01
  2717.500   1.33665436e+01
  2718.000   1.33634062e+01
  2718.500   1.33602836e+01
  2719.000   1.33571758e+01
  2719.500   1.33540830e+01
  2720.000   1.33510051e+01
  2720.500   1.33479421e+01
  2721.000   1.33448942e+01
  2721.500   1.33418612e+01
  2722.000   1.33388433e+01
  2722.500   1.33358405e+01
  2723.000   1.33328529e+01
  2723.500   1.33298803e+01
  2724.000   1.33269230e+01
  2724.500   1.33239808e+01
  2725.000   1.33210539e+01
  2725.500   1.33181422e+01
  2726.000   1.33152459e+01
  2726.500   1.33123649e+01
  2727.000   1.33094993e+01
  2727.500   1.33066491e+01
  2728.000   1.33038143e+01
  2728.500   1.33009950e+01
  2729.000   1.32981912e+01
  2729.500   1.32954029e+01
  2730.000   1.32926302e+01
  2730.500   1.32898731e+01
  2731.000   1.32871317e+01
  2731.500   1.32844059e+01
  2732.000   1.32816959e+01
  2732.500   1.32790016e+01
  2733.000   1.32763230e+01
  2733.500   1.32736603e+01
  2734.000   1.32710135e+01
  2734.500   1.32683826e+01
  2735.000   1.32657675e+01
  2735.500   1.32631685e+01
  2736.000   1.32605854e+01
  2736.500   1.32580184e+01
  2737.000   1.32554675e+01
  2737.500   1.32529327e+01
  2738.000   1.32504141e+01
  2738.500   1.32479116e+01
  2739.000   1.32454254e+01
  2739.500   1.32429554e+01
  2740.000   1.32405018e+01
  2740.500   1.32380645e+01
  2741.000   1.32356436e+01
  2741.500   1.32332391e+01
  2742.000   1.32308511e+01
  2742.500   1.32284797e+01
  2743.000   1.32261247e+01
  2743.500   1.32237864e+01
  2744.000   1.32214647e+01
  2744.500   1.32191597e+01
  2745.000   1.32168714e+01
  2745.500   1.32145998e+01
  2746.000   1.32123451e+01
  2746.500   1.32101072e+01
  2747.000   1.32078862e+01
  2747.500   1.32056821e+01
  2748.000   1.32034950e+01
  2748.500   1.32013250e+01
  2749.000   1.31991720e+01
  2749.500   1.31970361e+01
  2750.000   1.31949173e+01
  2750.500   1.31928158e+01
  2751.000   1.31907315e+01
  2751.500   1.31886645e+01
  2752.000   1.31866149e+01
  2752.500   1.31845826e+01
  2753.000   1.31825678e+01
  2753.500   1.31805704e+01
  2754.000   1.31785906e+01
  2754.500   1.31766283e+01
  2755.000   1.31746837e+01
  2755.500   1.31727567e+01
  2756.000   1.31708474e+01
  2756.500   1.31689560e+01
  2757.000   1.31670823e+01
  2757.500   1.31652265e+01
  2758.000   1.31633886e+01
  2758.500   1.31615687e+01
  2759.000   1.31597668e+01
  2759.500   1.31579830e+01
  2760.000   1.31562173e+01
  2760.500   1.31544697e+01
  2761.000   1.31527404e+01
  2761.500   1.31510294e+01
  2762.000   1.31493367e+01
  2762.500   1.31476623e+01
  2763.000   1.31460065e+01
  2763.500   1.31443691e+01
  2764.000   1.31427502e+01
  2764.500   1.31411499e+01
  2765.000   1.31395683e+01
  2765.500   1.31380054e+01
  2766.000   1.31364613e+01
  2766.500   1.31349360e+01
  2767.000   1.31334295e+01
  2767.500   1.31319420e+01
  2768.000   1.31304735e+01
  2768.500   1.31290240e+01
  2769.000   1.31275936e+01
  2769.500   1.31261824e+01
  2770.000   1.31247904e+01
  2770.500   1.31234177e+01
  2771.000   1.31220643e+01
  2771.500   1.31207304e+01
  2772.000   1.31194158e+01
  2772.500   1.31181208e+01
  2773.000   1.31168454e+01
  2773.500   1.31155897e+01
  2774.000   1.31143536e+01
  2774.500   1.31131373e+01
  2775.000   1.31119408e+01
  2775.500   1.31107642e+01
  2776.000   1.31096076e+01
  2776.500   1.31084710e+01
  2777.000   1.31073544e+01
  2777.500   1.31062580e+01
  2778.000   1.31051819e+01
  2778.500   1.31041260e+01
  2779.000   1.31030904e+01
  2779.500   1.31020753e+01
  2780.000   1.31010806e+01
  2780.500   1.31001065e+01
  2781.000   1.30991530e+01
  2781.500   1.30982201e+01
  2782.000   1.30973080e+01
  2782.500   1.30964168e+01
  2783.000   1.30955464e+01
  2783.500   1.30946970e+01
  2784.000   1.30938686e+01
  2784.500   1.30930613e+01
  2785.000   1.30922751e+01
  2785.500   1.30915103e+01
  2786.000   1.30907667e+01
  2786.500   1.30900445e+01
  2787.000   1.30893438e+01
  2787.500   1.30886646e+01
  2788.000   1.30880070e+01
  2788.500   1.30873711e+01
  2789.000   1.30867569e+01
  2789.500   1.30861646e+01
  2790.000   1.30855942e+01
  2790.500   1.30850458e+01
  2791.000   1.30845194e+01
  2791.500   1.30840152e+01
  2792.000   1.30835332e+01
  2792.500   1.30830735e+01
  2793.000   1.30826362e+01
  2793.500   1.30822213e+01
  2794.000   1.30818290e+01
  2794.500   1.30814593e+01
  2795.000   1.30811123e+01
  2795.500   1.30807881e+01
  2796.000   1.30804868e+01
  2796.500   1.30802083e+01
  2797.000   1.30799530e+01
  2797.500   1.30797207e+01
  2798.000   1.30795117e+01
  2798.500   1.30793259e+01
  2799.000   1.30791635e+01
  2799.500   1.30790246e+01
  2800.000   1.30789092e+01
  2800.500   1.30788174e+01
  2801.000   1.30787494e+01
  2801.500   1.30787052e+01
  2802.000   1.30786848e+01
  2802.500   1.30786885e+01
  2803.000   1.30787162e+01
  2803.500   1.30787682e+01
  2804.000   1.30788444e+01
  2804.500   1.30789449e+01
  2805.000   1.30790699e+01
  2805.500   1.30792194e+01
  2806.000   1.30793936e+01
  2806.500   1.30795925e+01
  2807.000   1.30798163e+01
  2807.500   1.30800649e+01
  2808.000   1.30803386e+01
  2808.500   1.30806374e+01
  2809.000   1.30809615e+01
  2809.500   1.30813108e+01
  2810.000   1.30816856e+01
  2810.500   1.30820859e+01
  2811.000   1.30825118e+01
  2811.500   1.30829634e+01
  2812.000   1.30834408e+01
  2812.500   1.30839442e+01
  2813.000   1.30844736e+01
  2813.500   1.30850291e+01
  2814.000   1.30856109e+01
  2814.500   1.30862190e+01
  2815.000   1.30868536e+01
  2815.500   1.30875147e+01
  2816.000   1.30882025e+01
  2816.500   1.30889171e+01
  2817.000   1.30896586e+01
  2817.500   1.30904271e+01
  2818.000   1.30912226e+01
  2818.500   1.30920454e+01
  2819.000   1.30928955e+01
  2819.500   1.30937731e+01
  2820.000   1.30946782e+01
  2820.500   1.30956110e+01
  2821.000   1.30965716e+01
  2821.500   1.30975601e+01
  2822.000   1.30985767e+01
  2822.500   1.30996213e+01
  2823.000   1.31006943e+01
  2823.500   1.31017956e+01
  2824.000   1.31029254e+01
  2824.500   1.31040839e+01
  2825.000   1.31052711e+01
  2825.500   1.31064871e+01
  2826.000   1.31077322e+01
  2826.500   1.31090064e+01
  2827.000   1.31103098e+01
  2827.500   1.31116426e+01
  2828.000   1.31130049e+01
  2828.500   1.31143968e+01
  2829.000   1.31158185e+01
  2829.500   1.31172700e+01
  2830.000   1.31187516e+01
  2830.500   1.31202633e+01
  2831.000   1.31218054e+01
  2831.500   1.31233778e+01
  2832.000   1.31249808e+01
  2832.500   1.31266145e+01
  2833.000   1.31282790e+01
  2833.500   1.31299745e+01
  2834.000   1.31317010e+01
  2834.500   1.31334588e+01
  2835.000   1.31352480e+01
  2835.500   1.31370688e+01
  2836.000   1.31389211e+01
  2836.500   1.31408053e+01
  2837.000   1.31427215e+01
  2837.500   1.31446698e+01
  2838.000   1.31466503e+01
  2838.500   1.31486632e+01
  2839.000   1.31507086e+01
  2839.500   1.31527867e+01
  2840.000   1.31548977e+01
  2840.500   1.31570417e+01
  2841.000   1.31592189e+01
  2841.500   1.31614293e+01
  2842.000   1.31636732e+01
  2842.500   1.31659507e+01
  2843.000   1.31682620e+01
  2843.500   1.31706072e+01
  2844.000   1.31729866e+01
  2844.500   1.31754001e+01
  2845.000   1.31778481e+01
  2845.500   1.31803307e+01
  2846.000   1.31828480e+01
  2846.500   1.31854003e+01
  2847.000   1.31879876e+01
  2847.500   1.31906102e+01
  2848.000   1.31932681e+01
  2848.500   1.31959617e+01
  2849.000   1.31986910e+01
  2849.500   1.32014563e+01
  2850.000   1.32042576e+01
  2850.500   1.32070953e+01
  2851.000   1.32099694e+01
  2851.500   1.32128801e+01
  2852.000   1.32158276e+01
  2852.500   1.32188122e+01
  2853.000   1.32218339e+01
  2853.500   1.32248930e+01
  2854.000   1.32279896e+01
  2854.500   1.32311240e+01
  2855.000   1.32342963e+01
  2855.500   1.32375067e+01
  2856.000   1.32407554e+01
  2856.500   1.32440426e+01
  2857.000   1.32473685e+01
  2857.500   1.32507333e+01
  2858.000   1.32541371e+01
  2858.500   1.32575802e+01
  2859.000   1.32610628e+01
  2859.500   1.32645851e+01
  2860.000   1.32681472e+01
  2860.500   1.32717495e+01
  2861.000   1.32753920e+01
  2861.500   1.32790750e+01
  2862.000   1.32827986e+01
  2862.500   1.32865633e+01
  2863.000   1.32903690e+01
  2863.500   1.32942160e+01
  2864.000   1.32981046e+01
  2864.500   1.33020350e+01
  2865.000   1.33060074e+01
  2865.500   1.33100219e+01
  2866.000   1.33140789e+01
  2866.500   1.33181785e+01
  2867.000   1.33223210e+01
  2867.500   1.33265066e+01
  2868.000   1.33307355e+01
  2868.500   1.33350079e+01
  2869.000   1.33393241e+01
  2869.500   1.33436844e+01
  2870.000   1.33480889e+01
  2870.500   1.33525379e+01
  2871.000   1.33570316e+01
  2871.500   1.33615703e+01
  2872.000   1.33661542e+01
  2872.500   1.33707835e+01
  2873.000   1.33754586e+01
  2873.500   1.33801795e+01
  2874.000   1.33849467e+01
  2874.500   1.33897603e+01
  2875.000   1.33946207e+01
  2875.500   1.33995280e+01
  2876.000   1.34044825e+01
  2876.500   1.34094844e+01
  2877.000   1.34145341e+01
  2877.500   1.34196318e+01
  2878.000   1.34247778e+01
  2878.500   1.34299723e+01
  2879.000   1.34352156e+01
  2879.500   1.34405080e+01
  2880.000   1.34458497e+01
  2880.500   1.34512410e+01
  2881.000   1.34566823e+01
  2881.500   1.34621737e+01
  2882.000   1.34677156e+01
  2882.500   1.34733082e+01
  2883.000   1.34789519e+01
  2883.500   1.34846469e+01
  2884.000   1.34903935e+01
  2884.500   1.34961921e+01
  2885.000   1.35020428e+01
  2885.500   1.35079461e+01
  2886.000   1.35139021e+01
  2886.500   1.35199113e+01
  2887.000   1.35259739e+01
  2887.500   1.35320902e+01
  2888.000   1.35382606e+01
  2888.500   1.35444853e+01
  2889.000   1.35507647e+01
  2889.500   1.35570990e+01
  2890.000   1.35634887e+01
  2890.500   1.35699340e+01
  2891.000   1.35764353e+01
  2891.500   1.35829928e+01
  2892.000   1.35896070e+01
  2892.500   1.35962781e+01
  2893.000   1.36030065e+01
  2893.500   1.36097925e+01
  2894.000   1.36166366e+01
  2894.500   1.36235389e+01
  2895.000   1.36304999e+01
  2895.500   1.36375199e+01
  2896.000   1.36445993e+01
  2896.500   1.36517384e+01
  2897.000   1.36589376e+01
  2897.500   1.36661973e+01
  2898.000   1.36735177e+01
  2898.500   1.36808994e+01
  2899.000   1.36883426e+01
  2899.500   1.36958478e+01
  2900.000   1.37034152e+01
  2900.500   1.37110454e+01
  2901.000   1.37187386e+01
  2901.500   1.37264954e+01
  2902.000   1.37343159e+01
  2902.500   1.37422007e+01
  2903.000   1.37501502e+01
  2903.500   1.37581647e+01
  2904.000   1.37662447e+01
  2904.500   1.37743905e+01
  2905.000   1.37826026e+01
  2905.500   1.37908814e+01
  2906.000   1.37992273e+01
  2906.500   1.38076408e+01
  2907.000   1.38161222e+01
  2907.500   1.38246720e+01
  2908.000   1.38332906e+01
  2908.500   1.38419784e+01
  2909.000   1.38507359e+01
  2909.500   1.38595636e+01
  2910.000   1.38684619e+01
  2910.500   1.38774312e+01
  2911.000   1.38864720e+01
  2911.500   1.38955848e+01
  2912.000   1.39047699e+01
  2912.500   1.39140280e+01
  2913.000   1.39233594e+01
  2913.500   1.39327647e+01
  2914.000   1.39422442e+01
  2914.500   1.39517986e+01
  2915.000   1.39614282e+01
  2915.500   1.39711336e+01
  2916.000   1.39809153e+01
  2916.500   1.39907738e+01
  2917.000   1.40007096e+01
  2917.500   1.40107231e+01
  2918.000   1.40208150e+01
  2918.500   1.40309857e+01
  2919.000   1.40412357e+01
  2919.500   1.40515657e+01
  2920.000   1.40619760e+01
  2920.500   1.40724673e+01
  2921.000   1.40830401e+01
  2921.500   1.40936950e+01
  2922.000   1.41044324e+01
  2922.500   1.41152530e+01
  2923.000   1.41261573e+01
  2923.500   1.41371459e+01
  2924.000   1.41482194e+01
  2924.500   1.41593783e+01
  2925.000   1.41706232e+01
  2925.500   1.41819548e+01
  2926.000   1.41933736e+01
  2926.500   1.42048801e+01
  2927.000   1.42164751e+01
  2927.500   1.42281591e+01
  2928.000   1.42399328e+01
  2928.500   1.42517967e+01
  2929.000   1.42637515e+01
  2929.500   1.42757978e+01
  2930.000   1.42879363e+01
  2930.500   1.43001676e+01
  2931.000   1.43124924e+01
  2931.500   1.43249113e+01
  2932.000   1.43374250e+01
  2932.500   1.43500342e+01
  2933.000   1.43627395e+01
  2933.500   1.43755416e+01
  2934.000   1.43884412e+01
  2934.500   1.44014390e+01
  2935.000   1.44145357e+01
  2935.500   1.44277321e+01
  2936.000   1.44410288e+01
  2936.500   1.44544265e+01
  2937.000   1.44679260e+01
  2937.500   1.44815281e+01
  2938.000   1.44952334e+01
  2938.500   1.45090427e+01
  2939.000   1.45229568e+01
  2939.500   1.45369765e+01
  2940.000   1.45511025e+01
  2940.500   1.45653355e+01
  2941.000   1.45796765e+01
  2941.500   1.45941262e+01
  2942.000   1.46086853e+01
  2942.500   1.46233547e+01
  2943.000   1.46381353e+01
  2943.500   1.46530278e+01
  2944.000   1.46680331e+01
  2944.500   1.46831520e+01
  2945.000   1.46983854e+01
  2945.500   1.47137341e+01
  2946.000   1.47291991e+01
  2946.500   1.47447811e+01
  2947.000   1.47604811e+01
  2947.500   1.47763000e+01
  2948.000   1.47922387e+01
  2948.500   1.48082980e+01
  2949.000   1.48244790e+01
  2949.500   1.48407825e+01
  2950.000   1.48572096e+01
  2950.500   1.48737610e+01
  2951.000   1.48904379e+01
  2951.500   1.49072411e+01
  2952.000   1.49241717e+01
  2952.500   1.49412307e+01
  2953.000   1.49584190e+01
  2953.500   1.49757377e+01
  2954.000   1.49931877e+01
  2954.500   1.50107702e+01
  2955.000   1.50284861e+01
  2955.500   1.50463366e+01
  2956.000   1.50643226e+01
  2956.500   1.50824453e+01
  2957.000   1.51007057e+01
  2957.500   1.51191050e+01
  2958.000   1.51376442e+01
  2958.500   1.51563245e+01
  2959.000   1.51751470e+01
  2959.500   1.51941129e+01
  2960.000   1.52132233e+01
  2960.500   1.52324793e+01
  2961.000   1.52518823e+01
  2961.500   1.52714333e+01
  2962.000   1.52911335e+01
  2962.500   1.53109843e+01
  2963.000   1.53309868e+01
  2963.500   1.53511422e+01
  2964.000   1.53714519e+01
  2964.500   1.53919171e+01
  2965.000   1.54125391e+01
  2965.500   1.54333192e+01
  2966.000   1.54542587e+01
  2966.500   1.54753589e+01
  2967.000   1.54966212e+01
  2967.500   1.55180470e+01
  2968.000   1.55396376e+01
  2968.500   1.55613944e+01
  2969.000   1.55833188e+01
  2969.500   1.56054122e+01
  2970.000   1.56276761e+01
  2970.500   1.56501119e+01
  2971.000   1.56727211e+01
  2971.500   1.56955051e+01
  2972.000   1.57184655e+01
  2972.500   1.57416038e+01
  2973.000   1.57649215e+01
  2973.500   1.57884201e+01
  2974.000   1.58121012e+01
  2974.500   1.58359664e+01
  2975.000   1.58600174e+01
  2975.500   1.58842556e+01
  2976.000   1.59086827e+01
  2976.500   1.59333005e+01
  2977.000   1.59581105e+01
  2977.500   1.59831145e+01
  2978.000   1.60083141e+01
  2978.500   1.60337111e+01
  2979.000   1.60593072e+01
  2979.500   1.60851042e+01
  2980.000   1.61111038e+01
  2980.500   1.61373079e+01
  2981.000   1.61637183e+01
  2981.500   1.61903368e+01
  2982.000   1.62171653e+01
  2982.500   1.62442056e+01
  2983.000   1.62714597e+01
  2983.500   1.62989295e+01
  2984.000   1.63266168e+01
  2984.500   1.63545237e+01
  2985.000   1.63826521e+01
  2985.500   1.64110040e+01
  2986.000   1.64395815e+01
  2986.500   1.64683866e+01
  2987.000   1.64974213e+01
  2987.500   1.65266877e+01
  2988.000   1.65561879e+01
  2988.500   1.65859241e+01
  2989.000   1.66158983e+01
  2989.500   1.66461127e+01
  2990.000   1.66765695e+01
  2990.500   1.67072709e+01
  2991.000   1.67382192e+01
  2991.500   1.67694165e+01
  2992.000   1.68008650e+01
  2992.500   1.68325672e+01
  2993.000   1.68645252e+01
  2993.500   1.68967415e+01
  2994.000   1.69292182e+01
  2994.500   1.69619578e+01
  2995.000   1.69949627e+01
  2995.500   1.70282351e+01
  2996.000   1.70617776e+01
  2996.500   1.70955925e+01
  2997.000   1.71296823e+01
  2997.500   1.71640494e+01
  2998.000   1.71986963e+01
  2998.500   1.72336254e+01
  2999.000   1.72688393e+01
  2999.500   1.73043404e+01
