# # Created with Intravib version 0.0.9g 
# # Total reorganization energy:  2147.630194 cm^-1
     0.000   0.00000000e+00
     0.500   1.04201368e-02
     1.000   2.08656792e-02
     1.500   3.13367147e-02
     2.000   4.18333311e-02
     2.500   5.23556168e-02
     3.000   6.29036609e-02
     3.500   7.34775526e-02
     4.000   8.40773818e-02
     4.500   9.47032389e-02
     5.000   1.05355215e-01
     5.500   1.16033401e-01
     6.000   1.26737889e-01
     6.500   1.37468771e-01
     7.000   1.48226141e-01
     7.500   1.59010091e-01
     8.000   1.69820716e-01
     8.500   1.80658111e-01
     9.000   1.91522369e-01
     9.500   2.02413587e-01
    10.000   2.13331861e-01
    10.500   2.24277288e-01
    11.000   2.35249965e-01
    11.500   2.46249989e-01
    12.000   2.57277458e-01
    12.500   2.68332473e-01
    13.000   2.79415132e-01
    13.500   2.90525535e-01
    14.000   3.01663784e-01
    14.500   3.12829978e-01
    15.000   3.24024221e-01
    15.500   3.35246615e-01
    16.000   3.46497262e-01
    16.500   3.57776266e-01
    17.000   3.69083732e-01
    17.500   3.80419765e-01
    18.000   3.91784470e-01
    18.500   4.03177953e-01
    19.000   4.14600321e-01
    19.500   4.26051683e-01
    20.000   4.37532145e-01
    20.500   4.49041817e-01
    21.000   4.60580808e-01
    21.500   4.72149229e-01
    22.000   4.83747190e-01
    22.500   4.95374802e-01
    23.000   5.07032179e-01
    23.500   5.18719434e-01
    24.000   5.30436678e-01
    24.500   5.42184029e-01
    25.000   5.53961599e-01
    25.500   5.65769506e-01
    26.000   5.77607865e-01
    26.500   5.89476795e-01
    27.000   6.01376413e-01
    27.500   6.13306838e-01
    28.000   6.25268190e-01
    28.500   6.37260590e-01
    29.000   6.49284158e-01
    29.500   6.61339017e-01
    30.000   6.73425289e-01
    30.500   6.85543098e-01
    31.000   6.97692569e-01
    31.500   7.09873827e-01
    32.000   7.22086998e-01
    32.500   7.34332210e-01
    33.000   7.46609589e-01
    33.500   7.58919265e-01
    34.000   7.71261368e-01
    34.500   7.83636028e-01
    35.000   7.96043376e-01
    35.500   8.08483545e-01
    36.000   8.20956668e-01
    36.500   8.33462879e-01
    37.000   8.46002314e-01
    37.500   8.58575108e-01
    38.000   8.71181399e-01
    38.500   8.83821325e-01
    39.000   8.96495024e-01
    39.500   9.09202637e-01
    40.000   9.21944305e-01
    40.500   9.34720170e-01
    41.000   9.47530374e-01
    41.500   9.60375063e-01
    42.000   9.73254381e-01
    42.500   9.86168474e-01
    43.000   9.99117491e-01
    43.500   1.01210158e+00
    44.000   1.02512089e+00
    44.500   1.03817557e+00
    45.000   1.05126577e+00
    45.500   1.06439165e+00
    46.000   1.07755336e+00
    46.500   1.09075106e+00
    47.000   1.10398489e+00
    47.500   1.11725503e+00
    48.000   1.13056163e+00
    48.500   1.14390485e+00
    49.000   1.15728484e+00
    49.500   1.17070178e+00
    50.000   1.18415583e+00
    50.500   1.19764715e+00
    51.000   1.21117591e+00
    51.500   1.22474228e+00
    52.000   1.23834642e+00
    52.500   1.25198851e+00
    53.000   1.26566872e+00
    53.500   1.27938722e+00
    54.000   1.29314419e+00
    54.500   1.30693980e+00
    55.000   1.32077424e+00
    55.500   1.33464767e+00
    56.000   1.34856029e+00
    56.500   1.36251227e+00
    57.000   1.37650380e+00
    57.500   1.39053506e+00
    58.000   1.40460624e+00
    58.500   1.41871754e+00
    59.000   1.43286913e+00
    59.500   1.44706121e+00
    60.000   1.46129397e+00
    60.500   1.47556762e+00
    61.000   1.48988234e+00
    61.500   1.50423834e+00
    62.000   1.51863581e+00
    62.500   1.53307496e+00
    63.000   1.54755600e+00
    63.500   1.56207912e+00
    64.000   1.57664454e+00
    64.500   1.59125246e+00
    65.000   1.60590310e+00
    65.500   1.62059667e+00
    66.000   1.63533339e+00
    66.500   1.65011347e+00
    67.000   1.66493714e+00
    67.500   1.67980461e+00
    68.000   1.69471611e+00
    68.500   1.70967186e+00
    69.000   1.72467210e+00
    69.500   1.73971705e+00
    70.000   1.75480695e+00
    70.500   1.76994203e+00
    71.000   1.78512252e+00
    71.500   1.80034868e+00
    72.000   1.81562073e+00
    72.500   1.83093892e+00
    73.000   1.84630350e+00
    73.500   1.86171473e+00
    74.000   1.87717284e+00
    74.500   1.89267809e+00
    75.000   1.90823075e+00
    75.500   1.92383107e+00
    76.000   1.93947931e+00
    76.500   1.95517573e+00
    77.000   1.97092061e+00
    77.500   1.98671422e+00
    78.000   2.00255682e+00
    78.500   2.01844870e+00
    79.000   2.03439013e+00
    79.500   2.05038139e+00
    80.000   2.06642278e+00
    80.500   2.08251457e+00
    81.000   2.09865706e+00
    81.500   2.11485054e+00
    82.000   2.13109532e+00
    82.500   2.14739169e+00
    83.000   2.16373995e+00
    83.500   2.18014042e+00
    84.000   2.19659340e+00
    84.500   2.21309922e+00
    85.000   2.22965818e+00
    85.500   2.24627061e+00
    86.000   2.26293683e+00
    86.500   2.27965718e+00
    87.000   2.29643199e+00
    87.500   2.31326159e+00
    88.000   2.33014633e+00
    88.500   2.34708655e+00
    89.000   2.36408260e+00
    89.500   2.38113483e+00
    90.000   2.39824360e+00
    90.500   2.41540928e+00
    91.000   2.43263222e+00
    91.500   2.44991280e+00
    92.000   2.46725140e+00
    92.500   2.48464839e+00
    93.000   2.50210415e+00
    93.500   2.51961909e+00
    94.000   2.53719358e+00
    94.500   2.55482804e+00
    95.000   2.57252286e+00
    95.500   2.59027846e+00
    96.000   2.60809524e+00
    96.500   2.62597363e+00
    97.000   2.64391406e+00
    97.500   2.66191694e+00
    98.000   2.67998273e+00
    98.500   2.69811186e+00
    99.000   2.71630478e+00
    99.500   2.73456194e+00
   100.000   2.75288380e+00
   100.500   2.77127084e+00
   101.000   2.78972351e+00
   101.500   2.80824230e+00
   102.000   2.82682770e+00
   102.500   2.84548019e+00
   103.000   2.86420028e+00
   103.500   2.88298847e+00
   104.000   2.90184526e+00
   104.500   2.92077119e+00
   105.000   2.93976677e+00
   105.500   2.95883254e+00
   106.000   2.97796905e+00
   106.500   2.99717684e+00
   107.000   3.01645646e+00
   107.500   3.03580849e+00
   108.000   3.05523349e+00
   108.500   3.07473204e+00
   109.000   3.09430475e+00
   109.500   3.11395220e+00
   110.000   3.13367500e+00
   110.500   3.15347376e+00
   111.000   3.17334912e+00
   111.500   3.19330171e+00
   112.000   3.21333217e+00
   112.500   3.23344115e+00
   113.000   3.25362932e+00
   113.500   3.27389736e+00
   114.000   3.29424594e+00
   114.500   3.31467576e+00
   115.000   3.33518753e+00
   115.500   3.35578195e+00
   116.000   3.37645977e+00
   116.500   3.39722172e+00
   117.000   3.41806855e+00
   117.500   3.43900103e+00
   118.000   3.46001992e+00
   118.500   3.48112601e+00
   119.000   3.50232011e+00
   119.500   3.52360304e+00
   120.000   3.54497560e+00
   120.500   3.56643866e+00
   121.000   3.58799305e+00
   121.500   3.60963966e+00
   122.000   3.63137936e+00
   122.500   3.65321305e+00
   123.000   3.67514164e+00
   123.500   3.69716607e+00
   124.000   3.71928728e+00
   124.500   3.74150624e+00
   125.000   3.76382391e+00
   125.500   3.78624131e+00
   126.000   3.80875943e+00
   126.500   3.83137931e+00
   127.000   3.85410201e+00
   127.500   3.87692859e+00
   128.000   3.89986014e+00
   128.500   3.92289776e+00
   129.000   3.94604259e+00
   129.500   3.96929577e+00
   130.000   3.99265847e+00
   130.500   4.01613189e+00
   131.000   4.03971724e+00
   131.500   4.06341574e+00
   132.000   4.08722867e+00
   132.500   4.11115731e+00
   133.000   4.13520296e+00
   133.500   4.15936695e+00
   134.000   4.18365064e+00
   134.500   4.20805541e+00
   135.000   4.23258267e+00
   135.500   4.25723386e+00
   136.000   4.28201043e+00
   136.500   4.30691389e+00
   137.000   4.33194575e+00
   137.500   4.35710755e+00
   138.000   4.38240088e+00
   138.500   4.40782735e+00
   139.000   4.43338860e+00
   139.500   4.45908630e+00
   140.000   4.48492215e+00
   140.500   4.51089790e+00
   141.000   4.53701532e+00
   141.500   4.56327621e+00
   142.000   4.58968242e+00
   142.500   4.61623582e+00
   143.000   4.64293834e+00
   143.500   4.66979192e+00
   144.000   4.69679856e+00
   144.500   4.72396029e+00
   145.000   4.75127919e+00
   145.500   4.77875736e+00
   146.000   4.80639696e+00
   146.500   4.83420019e+00
   147.000   4.86216929e+00
   147.500   4.89030655e+00
   148.000   4.91861431e+00
   148.500   4.94709493e+00
   149.000   4.97575085e+00
   149.500   5.00458454e+00
   150.000   5.03359854e+00
   150.500   5.06279540e+00
   151.000   5.09217776e+00
   151.500   5.12174831e+00
   152.000   5.15150977e+00
   152.500   5.18146493e+00
   153.000   5.21161663e+00
   153.500   5.24196779e+00
   154.000   5.27252135e+00
   154.500   5.30328033e+00
   155.000   5.33424781e+00
   155.500   5.36542694e+00
   156.000   5.39682090e+00
   156.500   5.42843297e+00
   157.000   5.46026648e+00
   157.500   5.49232481e+00
   158.000   5.52461142e+00
   158.500   5.55712986e+00
   159.000   5.58988370e+00
   159.500   5.62287661e+00
   160.000   5.65611233e+00
   160.500   5.68959467e+00
   161.000   5.72332749e+00
   161.500   5.75731475e+00
   162.000   5.79156048e+00
   162.500   5.82606877e+00
   163.000   5.86084378e+00
   163.500   5.89588977e+00
   164.000   5.93121106e+00
   164.500   5.96681204e+00
   165.000   6.00269719e+00
   165.500   6.03887106e+00
   166.000   6.07533828e+00
   166.500   6.11210354e+00
   167.000   6.14917162e+00
   167.500   6.18654739e+00
   168.000   6.22423576e+00
   168.500   6.26224175e+00
   169.000   6.30057043e+00
   169.500   6.33922695e+00
   170.000   6.37821654e+00
   170.500   6.41754447e+00
   171.000   6.45721613e+00
   171.500   6.49723692e+00
   172.000   6.53761233e+00
   172.500   6.57834793e+00
   173.000   6.61944930e+00
   173.500   6.66092212e+00
   174.000   6.70277210e+00
   174.500   6.74500498e+00
   175.000   6.78762658e+00
   175.500   6.83064273e+00
   176.000   6.87405929e+00
   176.500   6.91788215e+00
   177.000   6.96211722e+00
   177.500   7.00677042e+00
   178.000   7.05184767e+00
   178.500   7.09735487e+00
   179.000   7.14329793e+00
   179.500   7.18968271e+00
   180.000   7.23651505e+00
   180.500   7.28380071e+00
   181.000   7.33154542e+00
   181.500   7.37975482e+00
   182.000   7.42843445e+00
   182.500   7.47758975e+00
   183.000   7.52722603e+00
   183.500   7.57734845e+00
   184.000   7.62796203e+00
   184.500   7.67907158e+00
   185.000   7.73068170e+00
   185.500   7.78279679e+00
   186.000   7.83542096e+00
   186.500   7.88855806e+00
   187.000   7.94221162e+00
   187.500   7.99638483e+00
   188.000   8.05108053e+00
   188.500   8.10630111e+00
   189.000   8.16204857e+00
   189.500   8.21832442e+00
   190.000   8.27512965e+00
   190.500   8.33246470e+00
   191.000   8.39032943e+00
   191.500   8.44872307e+00
   192.000   8.50764415e+00
   192.500   8.56709050e+00
   193.000   8.62705917e+00
   193.500   8.68754640e+00
   194.000   8.74854755e+00
   194.500   8.81005708e+00
   195.000   8.87206847e+00
   195.500   8.93457418e+00
   196.000   8.99756561e+00
   196.500   9.06103302e+00
   197.000   9.12496550e+00
   197.500   9.18935090e+00
   198.000   9.25417582e+00
   198.500   9.31942550e+00
   199.000   9.38508380e+00
   199.500   9.45113317e+00
   200.000   9.51755457e+00
   200.500   9.58432746e+00
   201.000   9.65142973e+00
   201.500   9.71883770e+00
   202.000   9.78652606e+00
   202.500   9.85446788e+00
   203.000   9.92263454e+00
   203.500   9.99099577e+00
   204.000   1.00595196e+01
   204.500   1.01281724e+01
   205.000   1.01969189e+01
   205.500   1.02657221e+01
   206.000   1.03345435e+01
   206.500   1.04033430e+01
   207.000   1.04720788e+01
   207.500   1.05407080e+01
   208.000   1.06091859e+01
   208.500   1.06774668e+01
   209.000   1.07455037e+01
   209.500   1.08132485e+01
   210.000   1.08806521e+01
   210.500   1.09476648e+01
   211.000   1.10142358e+01
   211.500   1.10803142e+01
   212.000   1.11458485e+01
   212.500   1.12107872e+01
   213.000   1.12750787e+01
   213.500   1.13386717e+01
   214.000   1.14015153e+01
   214.500   1.14635593e+01
   215.000   1.15247545e+01
   215.500   1.15850525e+01
   216.000   1.16444064e+01
   216.500   1.17027710e+01
   217.000   1.17601026e+01
   217.500   1.18163597e+01
   218.000   1.18715030e+01
   218.500   1.19254954e+01
   219.000   1.19783028e+01
   219.500   1.20298935e+01
   220.000   1.20802389e+01
   220.500   1.21293136e+01
   221.000   1.21770955e+01
   221.500   1.22235656e+01
   222.000   1.22687086e+01
   222.500   1.23125128e+01
   223.000   1.23549698e+01
   223.500   1.23960751e+01
   224.000   1.24358279e+01
   224.500   1.24742307e+01
   225.000   1.25112900e+01
   225.500   1.25470156e+01
   226.000   1.25814209e+01
   226.500   1.26145227e+01
   227.000   1.26463409e+01
   227.500   1.26768987e+01
   228.000   1.27062223e+01
   228.500   1.27343406e+01
   229.000   1.27612854e+01
   229.500   1.27870907e+01
   230.000   1.28117930e+01
   230.500   1.28354307e+01
   231.000   1.28580443e+01
   231.500   1.28796757e+01
   232.000   1.29003685e+01
   232.500   1.29201675e+01
   233.000   1.29391184e+01
   233.500   1.29572678e+01
   234.000   1.29746631e+01
   234.500   1.29913519e+01
   235.000   1.30073822e+01
   235.500   1.30228020e+01
   236.000   1.30376594e+01
   236.500   1.30520020e+01
   237.000   1.30658771e+01
   237.500   1.30793315e+01
   238.000   1.30924113e+01
   238.500   1.31051618e+01
   239.000   1.31176273e+01
   239.500   1.31298515e+01
   240.000   1.31418765e+01
   240.500   1.31537437e+01
   241.000   1.31654930e+01
   241.500   1.31771632e+01
   242.000   1.31887918e+01
   242.500   1.32004148e+01
   243.000   1.32120671e+01
   243.500   1.32237819e+01
   244.000   1.32355912e+01
   244.500   1.32475257e+01
   245.000   1.32596144e+01
   245.500   1.32718852e+01
   246.000   1.32843645e+01
   246.500   1.32970774e+01
   247.000   1.33100474e+01
   247.500   1.33232972e+01
   248.000   1.33368477e+01
   248.500   1.33507189e+01
   249.000   1.33649295e+01
   249.500   1.33794969e+01
   250.000   1.33944374e+01
   250.500   1.34097665e+01
   251.000   1.34254981e+01
   251.500   1.34416455e+01
   252.000   1.34582209e+01
   252.500   1.34752356e+01
   253.000   1.34926998e+01
   253.500   1.35106230e+01
   254.000   1.35290140e+01
   254.500   1.35478806e+01
   255.000   1.35672300e+01
   255.500   1.35870686e+01
   256.000   1.36074023e+01
   256.500   1.36282362e+01
   257.000   1.36495748e+01
   257.500   1.36714222e+01
   258.000   1.36937819e+01
   258.500   1.37166569e+01
   259.000   1.37400498e+01
   259.500   1.37639625e+01
   260.000   1.37883970e+01
   260.500   1.38133544e+01
   261.000   1.38388359e+01
   261.500   1.38648420e+01
   262.000   1.38913731e+01
   262.500   1.39184293e+01
   263.000   1.39460105e+01
   263.500   1.39741163e+01
   264.000   1.40027460e+01
   264.500   1.40318990e+01
   265.000   1.40615741e+01
   265.500   1.40917703e+01
   266.000   1.41224864e+01
   266.500   1.41537208e+01
   267.000   1.41854721e+01
   267.500   1.42177388e+01
   268.000   1.42505191e+01
   268.500   1.42838112e+01
   269.000   1.43176133e+01
   269.500   1.43519235e+01
   270.000   1.43867400e+01
   270.500   1.44220608e+01
   271.000   1.44578839e+01
   271.500   1.44942073e+01
   272.000   1.45310290e+01
   272.500   1.45683471e+01
   273.000   1.46061595e+01
   273.500   1.46444644e+01
   274.000   1.46832597e+01
   274.500   1.47225435e+01
   275.000   1.47623140e+01
   275.500   1.48025693e+01
   276.000   1.48433075e+01
   276.500   1.48845270e+01
   277.000   1.49262259e+01
   277.500   1.49684026e+01
   278.000   1.50110554e+01
   278.500   1.50541828e+01
   279.000   1.50977833e+01
   279.500   1.51418554e+01
   280.000   1.51863977e+01
   280.500   1.52314088e+01
   281.000   1.52768875e+01
   281.500   1.53228325e+01
   282.000   1.53692428e+01
   282.500   1.54161171e+01
   283.000   1.54634546e+01
   283.500   1.55112541e+01
   284.000   1.55595149e+01
   284.500   1.56082361e+01
   285.000   1.56574169e+01
   285.500   1.57070566e+01
   286.000   1.57571547e+01
   286.500   1.58077105e+01
   287.000   1.58587236e+01
   287.500   1.59101935e+01
   288.000   1.59621198e+01
   288.500   1.60145023e+01
   289.000   1.60673407e+01
   289.500   1.61206348e+01
   290.000   1.61743846e+01
   290.500   1.62285899e+01
   291.000   1.62832509e+01
   291.500   1.63383675e+01
   292.000   1.63939400e+01
   292.500   1.64499686e+01
   293.000   1.65064535e+01
   293.500   1.65633950e+01
   294.000   1.66207936e+01
   294.500   1.66786497e+01
   295.000   1.67369639e+01
   295.500   1.67957367e+01
   296.000   1.68549688e+01
   296.500   1.69146609e+01
   297.000   1.69748138e+01
   297.500   1.70354283e+01
   298.000   1.70965053e+01
   298.500   1.71580457e+01
   299.000   1.72200507e+01
   299.500   1.72825212e+01
   300.000   1.73454584e+01
   300.500   1.74088635e+01
   301.000   1.74727378e+01
   301.500   1.75370826e+01
   302.000   1.76018993e+01
   302.500   1.76671893e+01
   303.000   1.77329542e+01
   303.500   1.77991956e+01
   304.000   1.78659150e+01
   304.500   1.79331142e+01
   305.000   1.80007949e+01
   305.500   1.80689590e+01
   306.000   1.81376083e+01
   306.500   1.82067448e+01
   307.000   1.82763706e+01
   307.500   1.83464876e+01
   308.000   1.84170980e+01
   308.500   1.84882041e+01
   309.000   1.85598080e+01
   309.500   1.86319122e+01
   310.000   1.87045190e+01
   310.500   1.87776308e+01
   311.000   1.88512503e+01
   311.500   1.89253799e+01
   312.000   1.90000224e+01
   312.500   1.90751804e+01
   313.000   1.91508568e+01
   313.500   1.92270544e+01
   314.000   1.93037761e+01
   314.500   1.93810249e+01
   315.000   1.94588039e+01
   315.500   1.95371162e+01
   316.000   1.96159649e+01
   316.500   1.96953534e+01
   317.000   1.97752850e+01
   317.500   1.98557630e+01
   318.000   1.99367910e+01
   318.500   2.00183725e+01
   319.000   2.01005110e+01
   319.500   2.01832104e+01
   320.000   2.02664743e+01
   320.500   2.03503066e+01
   321.000   2.04347112e+01
   321.500   2.05196920e+01
   322.000   2.06052532e+01
   322.500   2.06913989e+01
   323.000   2.07781332e+01
   323.500   2.08654605e+01
   324.000   2.09533852e+01
   324.500   2.10419116e+01
   325.000   2.11310444e+01
   325.500   2.12207880e+01
   326.000   2.13111473e+01
   326.500   2.14021270e+01
   327.000   2.14937319e+01
   327.500   2.15859671e+01
   328.000   2.16788374e+01
   328.500   2.17723481e+01
   329.000   2.18665043e+01
   329.500   2.19613113e+01
   330.000   2.20567745e+01
   330.500   2.21528995e+01
   331.000   2.22496916e+01
   331.500   2.23471567e+01
   332.000   2.24453004e+01
   332.500   2.25441286e+01
   333.000   2.26436473e+01
   333.500   2.27438625e+01
   334.000   2.28447802e+01
   334.500   2.29464069e+01
   335.000   2.30487488e+01
   335.500   2.31518123e+01
   336.000   2.32556040e+01
   336.500   2.33601306e+01
   337.000   2.34653989e+01
   337.500   2.35714157e+01
   338.000   2.36781880e+01
   338.500   2.37857229e+01
   339.000   2.38940276e+01
   339.500   2.40031094e+01
   340.000   2.41129759e+01
   340.500   2.42236345e+01
   341.000   2.43350930e+01
   341.500   2.44473591e+01
   342.000   2.45604409e+01
   342.500   2.46743463e+01
   343.000   2.47890835e+01
   343.500   2.49046610e+01
   344.000   2.50210870e+01
   344.500   2.51383703e+01
   345.000   2.52565195e+01
   345.500   2.53755435e+01
   346.000   2.54954513e+01
   346.500   2.56162521e+01
   347.000   2.57379552e+01
   347.500   2.58605699e+01
   348.000   2.59841060e+01
   348.500   2.61085731e+01
   349.000   2.62339812e+01
   349.500   2.63603403e+01
   350.000   2.64876606e+01
   350.500   2.66159526e+01
   351.000   2.67452267e+01
   351.500   2.68754938e+01
   352.000   2.70067648e+01
   352.500   2.71390506e+01
   353.000   2.72723627e+01
   353.500   2.74067123e+01
   354.000   2.75421112e+01
   354.500   2.76785712e+01
   355.000   2.78161043e+01
   355.500   2.79547227e+01
   356.000   2.80944388e+01
   356.500   2.82352653e+01
   357.000   2.83772149e+01
   357.500   2.85203009e+01
   358.000   2.86645363e+01
   358.500   2.88099348e+01
   359.000   2.89565101e+01
   359.500   2.91042761e+01
   360.000   2.92532470e+01
   360.500   2.94034372e+01
   361.000   2.95548616e+01
   361.500   2.97075350e+01
   362.000   2.98614726e+01
   362.500   3.00166900e+01
   363.000   3.01732028e+01
   363.500   3.03310272e+01
   364.000   3.04901795e+01
   364.500   3.06506762e+01
   365.000   3.08125344e+01
   365.500   3.09757711e+01
   366.000   3.11404041e+01
   366.500   3.13064510e+01
   367.000   3.14739302e+01
   367.500   3.16428601e+01
   368.000   3.18132596e+01
   368.500   3.19851479e+01
   369.000   3.21585446e+01
   369.500   3.23334696e+01
   370.000   3.25099432e+01
   370.500   3.26879861e+01
   371.000   3.28676194e+01
   371.500   3.30488646e+01
   372.000   3.32317435e+01
   372.500   3.34162784e+01
   373.000   3.36024921e+01
   373.500   3.37904077e+01
   374.000   3.39800488e+01
   374.500   3.41714394e+01
   375.000   3.43646040e+01
   375.500   3.45595675e+01
   376.000   3.47563555e+01
   376.500   3.49549937e+01
   377.000   3.51555087e+01
   377.500   3.53579273e+01
   378.000   3.55622770e+01
   378.500   3.57685857e+01
   379.000   3.59768818e+01
   379.500   3.61871946e+01
   380.000   3.63995534e+01
   380.500   3.66139885e+01
   381.000   3.68305306e+01
   381.500   3.70492110e+01
   382.000   3.72700616e+01
   382.500   3.74931150e+01
   383.000   3.77184044e+01
   383.500   3.79459634e+01
   384.000   3.81758265e+01
   384.500   3.84080289e+01
   385.000   3.86426064e+01
   385.500   3.88795953e+01
   386.000   3.91190328e+01
   386.500   3.93609570e+01
   387.000   3.96054062e+01
   387.500   3.98524201e+01
   388.000   4.01020385e+01
   388.500   4.03543026e+01
   389.000   4.06092539e+01
   389.500   4.08669350e+01
   390.000   4.11273893e+01
   390.500   4.13906609e+01
   391.000   4.16567948e+01
   391.500   4.19258371e+01
   392.000   4.21978344e+01
   392.500   4.24728346e+01
   393.000   4.27508863e+01
   393.500   4.30320392e+01
   394.000   4.33163438e+01
   394.500   4.36038517e+01
   395.000   4.38946156e+01
   395.500   4.41886889e+01
   396.000   4.44861265e+01
   396.500   4.47869841e+01
   397.000   4.50913184e+01
   397.500   4.53991875e+01
   398.000   4.57106504e+01
   398.500   4.60257673e+01
   399.000   4.63445997e+01
   399.500   4.66672102e+01
   400.000   4.69936624e+01
   400.500   4.73240216e+01
   401.000   4.76583540e+01
   401.500   4.79967272e+01
   402.000   4.83392101e+01
   402.500   4.86858729e+01
   403.000   4.90367870e+01
   403.500   4.93920256e+01
   404.000   4.97516627e+01
   404.500   5.01157741e+01
   405.000   5.04844370e+01
   405.500   5.08577298e+01
   406.000   5.12357325e+01
   406.500   5.16185267e+01
   407.000   5.20061952e+01
   407.500   5.23988225e+01
   408.000   5.27964947e+01
   408.500   5.31992991e+01
   409.000   5.36073249e+01
   409.500   5.40206627e+01
   410.000   5.44394046e+01
   410.500   5.48636444e+01
   411.000   5.52934774e+01
   411.500   5.57290004e+01
   412.000   5.61703120e+01
   412.500   5.66175121e+01
   413.000   5.70707024e+01
   413.500   5.75299862e+01
   414.000   5.79954680e+01
   414.500   5.84672543e+01
   415.000   5.89454527e+01
   415.500   5.94301727e+01
   416.000   5.99215250e+01
   416.500   6.04196219e+01
   417.000   6.09245769e+01
   417.500   6.14365052e+01
   418.000   6.19555230e+01
   418.500   6.24817479e+01
   419.000   6.30152988e+01
   419.500   6.35562957e+01
   420.000   6.41048596e+01
   420.500   6.46611124e+01
   421.000   6.52251771e+01
   421.500   6.57971774e+01
   422.000   6.63772377e+01
   422.500   6.69654829e+01
   423.000   6.75620384e+01
   423.500   6.81670298e+01
   424.000   6.87805828e+01
   424.500   6.94028233e+01
   425.000   7.00338766e+01
   425.500   7.06738678e+01
   426.000   7.13229212e+01
   426.500   7.19811604e+01
   427.000   7.26487077e+01
   427.500   7.33256841e+01
   428.000   7.40122086e+01
   428.500   7.47083986e+01
   429.000   7.54143689e+01
   429.500   7.61302317e+01
   430.000   7.68560959e+01
   430.500   7.75920672e+01
   431.000   7.83382472e+01
   431.500   7.90947333e+01
   432.000   7.98616177e+01
   432.500   8.06389875e+01
   433.000   8.14269239e+01
   433.500   8.22255015e+01
   434.000   8.30347879e+01
   434.500   8.38548428e+01
   435.000   8.46857178e+01
   435.500   8.55274552e+01
   436.000   8.63800875e+01
   436.500   8.72436367e+01
   437.000   8.81181135e+01
   437.500   8.90035162e+01
   438.000   8.98998302e+01
   438.500   9.08070269e+01
   439.000   9.17250629e+01
   439.500   9.26538789e+01
   440.000   9.35933990e+01
   440.500   9.45435293e+01
   441.000   9.55041573e+01
   441.500   9.64751505e+01
   442.000   9.74563559e+01
   442.500   9.84475982e+01
   443.000   9.94486793e+01
   443.500   1.00459377e+02
   444.000   1.01479444e+02
   444.500   1.02508608e+02
   445.000   1.03546567e+02
   445.500   1.04592992e+02
   446.000   1.05647528e+02
   446.500   1.06709784e+02
   447.000   1.07779344e+02
   447.500   1.08855757e+02
   448.000   1.09938541e+02
   448.500   1.11027180e+02
   449.000   1.12121126e+02
   449.500   1.13219797e+02
   450.000   1.14322575e+02
   450.500   1.15428812e+02
   451.000   1.16537821e+02
   451.500   1.17648884e+02
   452.000   1.18761251e+02
   452.500   1.19874136e+02
   453.000   1.20986722e+02
   453.500   1.22098163e+02
   454.000   1.23207581e+02
   454.500   1.24314070e+02
   455.000   1.25416701e+02
   455.500   1.26514516e+02
   456.000   1.27606539e+02
   456.500   1.28691771e+02
   457.000   1.29769201e+02
   457.500   1.30837800e+02
   458.000   1.31896532e+02
   458.500   1.32944353e+02
   459.000   1.33980216e+02
   459.500   1.35003078e+02
   460.000   1.36011898e+02
   460.500   1.37005648e+02
   461.000   1.37983313e+02
   461.500   1.38943898e+02
   462.000   1.39886432e+02
   462.500   1.40809972e+02
   463.000   1.41713610e+02
   463.500   1.42596475e+02
   464.000   1.43457742e+02
   464.500   1.44296631e+02
   465.000   1.45112415e+02
   465.500   1.45904424e+02
   466.000   1.46672050e+02
   466.500   1.47414747e+02
   467.000   1.48132039e+02
   467.500   1.48823519e+02
   468.000   1.49488855e+02
   468.500   1.50127791e+02
   469.000   1.50740149e+02
   469.500   1.51325829e+02
   470.000   1.51884812e+02
   470.500   1.52417160e+02
   471.000   1.52923016e+02
   471.500   1.53402602e+02
   472.000   1.53856219e+02
   472.500   1.54284249e+02
   473.000   1.54687145e+02
   473.500   1.55065437e+02
   474.000   1.55419725e+02
   474.500   1.55750676e+02
   475.000   1.56059023e+02
   475.500   1.56345559e+02
   476.000   1.56611134e+02
   476.500   1.56856650e+02
   477.000   1.57083058e+02
   477.500   1.57291353e+02
   478.000   1.57482569e+02
   478.500   1.57657776e+02
   479.000   1.57818073e+02
   479.500   1.57964585e+02
   480.000   1.58098458e+02
   480.500   1.58220855e+02
   481.000   1.58332952e+02
   481.500   1.58435933e+02
   482.000   1.58530985e+02
   482.500   1.58619298e+02
   483.000   1.58702057e+02
   483.500   1.58780442e+02
   484.000   1.58855622e+02
   484.500   1.58928757e+02
   485.000   1.59000988e+02
   485.500   1.59073443e+02
   486.000   1.59147227e+02
   486.500   1.59223427e+02
   487.000   1.59303104e+02
   487.500   1.59387298e+02
   488.000   1.59477022e+02
   488.500   1.59573264e+02
   489.000   1.59676982e+02
   489.500   1.59789111e+02
   490.000   1.59910555e+02
   490.500   1.60042191e+02
   491.000   1.60184868e+02
   491.500   1.60339407e+02
   492.000   1.60506602e+02
   492.500   1.60687220e+02
   493.000   1.60881999e+02
   493.500   1.61091654e+02
   494.000   1.61316872e+02
   494.500   1.61558318e+02
   495.000   1.61816632e+02
   495.500   1.62092429e+02
   496.000   1.62386306e+02
   496.500   1.62698836e+02
   497.000   1.63030573e+02
   497.500   1.63382052e+02
   498.000   1.63753790e+02
   498.500   1.64146288e+02
   499.000   1.64560029e+02
   499.500   1.64995482e+02
   500.000   1.65453105e+02
   500.500   1.65933338e+02
   501.000   1.66436615e+02
   501.500   1.66963354e+02
   502.000   1.67513968e+02
   502.500   1.68088857e+02
   503.000   1.68688416e+02
   503.500   1.69313031e+02
   504.000   1.69963085e+02
   504.500   1.70638953e+02
   505.000   1.71341006e+02
   505.500   1.72069612e+02
   506.000   1.72825136e+02
   506.500   1.73607942e+02
   507.000   1.74418389e+02
   507.500   1.75256840e+02
   508.000   1.76123655e+02
   508.500   1.77019195e+02
   509.000   1.77943821e+02
   509.500   1.78897899e+02
   510.000   1.79881793e+02
   510.500   1.80895873e+02
   511.000   1.81940509e+02
   511.500   1.83016077e+02
   512.000   1.84122955e+02
   512.500   1.85261525e+02
   513.000   1.86432177e+02
   513.500   1.87635300e+02
   514.000   1.88871293e+02
   514.500   1.90140557e+02
   515.000   1.91443500e+02
   515.500   1.92780536e+02
   516.000   1.94152083e+02
   516.500   1.95558565e+02
   517.000   1.97000412e+02
   517.500   1.98478061e+02
   518.000   1.99991953e+02
   518.500   2.01542534e+02
   519.000   2.03130259e+02
   519.500   2.04755584e+02
   520.000   2.06418974e+02
   520.500   2.08120895e+02
   521.000   2.09861820e+02
   521.500   2.11642226e+02
   522.000   2.13462593e+02
   522.500   2.15323405e+02
   523.000   2.17225149e+02
   523.500   2.19168312e+02
   524.000   2.21153386e+02
   524.500   2.23180860e+02
   525.000   2.25251227e+02
   525.500   2.27364976e+02
   526.000   2.29522594e+02
   526.500   2.31724569e+02
   527.000   2.33971381e+02
   527.500   2.36263505e+02
   528.000   2.38601413e+02
   528.500   2.40985565e+02
   529.000   2.43416415e+02
   529.500   2.45894403e+02
   530.000   2.48419957e+02
   530.500   2.50993492e+02
   531.000   2.53615405e+02
   531.500   2.56286073e+02
   532.000   2.59005855e+02
   532.500   2.61775085e+02
   533.000   2.64594069e+02
   533.500   2.67463087e+02
   534.000   2.70382387e+02
   534.500   2.73352181e+02
   535.000   2.76372645e+02
   535.500   2.79443913e+02
   536.000   2.82566074e+02
   536.500   2.85739170e+02
   537.000   2.88963189e+02
   537.500   2.92238063e+02
   538.000   2.95563666e+02
   538.500   2.98939804e+02
   539.000   3.02366215e+02
   539.500   3.05842563e+02
   540.000   3.09368432e+02
   540.500   3.12943323e+02
   541.000   3.16566648e+02
   541.500   3.20237722e+02
   542.000   3.23955763e+02
   542.500   3.27719881e+02
   543.000   3.31529077e+02
   543.500   3.35382234e+02
   544.000   3.39278112e+02
   544.500   3.43215343e+02
   545.000   3.47192426e+02
   545.500   3.51207720e+02
   546.000   3.55259438e+02
   546.500   3.59345643e+02
   547.000   3.63464244e+02
   547.500   3.67612987e+02
   548.000   3.71789454e+02
   548.500   3.75991057e+02
   549.000   3.80215034e+02
   549.500   3.84458448e+02
   550.000   3.88718180e+02
   550.500   3.92990931e+02
   551.000   3.97273215e+02
   551.500   4.01561366e+02
   552.000   4.05851530e+02
   552.500   4.10139670e+02
   553.000   4.14421568e+02
   553.500   4.18692827e+02
   554.000   4.22948874e+02
   554.500   4.27184966e+02
   555.000   4.31396199e+02
   555.500   4.35577511e+02
   556.000   4.39723695e+02
   556.500   4.43829406e+02
   557.000   4.47889177e+02
   557.500   4.51897427e+02
   558.000   4.55848481e+02
   558.500   4.59736583e+02
   559.000   4.63555912e+02
   559.500   4.67300604e+02
   560.000   4.70964773e+02
   560.500   4.74542526e+02
   561.000   4.78027990e+02
   561.500   4.81415336e+02
   562.000   4.84698801e+02
   562.500   4.87872712e+02
   563.000   4.90931513e+02
   563.500   4.93869789e+02
   564.000   4.96682296e+02
   564.500   4.99363979e+02
   565.000   5.01910005e+02
   565.500   5.04315783e+02
   566.000   5.06576991e+02
   566.500   5.08689596e+02
   567.000   5.10649878e+02
   567.500   5.12454452e+02
   568.000   5.14100283e+02
   568.500   5.15584707e+02
   569.000   5.16905441e+02
   569.500   5.18060603e+02
   570.000   5.19048716e+02
   570.500   5.19868719e+02
   571.000   5.20519974e+02
   571.500   5.21002266e+02
   572.000   5.21315805e+02
   572.500   5.21461225e+02
   573.000   5.21439578e+02
   573.500   5.21252327e+02
   574.000   5.20901338e+02
   574.500   5.20388864e+02
   575.000   5.19717535e+02
   575.500   5.18890343e+02
   576.000   5.17910620e+02
   576.500   5.16782018e+02
   577.000   5.15508494e+02
   577.500   5.14094283e+02
   578.000   5.12543875e+02
   578.500   5.10861993e+02
   579.000   5.09053567e+02
   579.500   5.07123709e+02
   580.000   5.05077689e+02
   580.500   5.02920910e+02
   581.000   5.00658883e+02
   581.500   4.98297201e+02
   582.000   4.95841519e+02
   582.500   4.93297529e+02
   583.000   4.90670937e+02
   583.500   4.87967446e+02
   584.000   4.85192731e+02
   584.500   4.82352424e+02
   585.000   4.79452095e+02
   585.500   4.76497238e+02
   586.000   4.73493254e+02
   586.500   4.70445436e+02
   587.000   4.67358962e+02
   587.500   4.64238882e+02
   588.000   4.61090104e+02
   588.500   4.57917394e+02
   589.000   4.54725363e+02
   589.500   4.51518463e+02
   590.000   4.48300982e+02
   590.500   4.45077043e+02
   591.000   4.41850599e+02
   591.500   4.38625430e+02
   592.000   4.35405145e+02
   592.500   4.32193183e+02
   593.000   4.28992810e+02
   593.500   4.25807124e+02
   594.000   4.22639055e+02
   594.500   4.19491369e+02
   595.000   4.16366672e+02
   595.500   4.13267409e+02
   596.000   4.10195873e+02
   596.500   4.07154209e+02
   597.000   4.04144413e+02
   597.500   4.01168346e+02
   598.000   3.98227727e+02
   598.500   3.95324151e+02
   599.000   3.92459083e+02
   599.500   3.89633869e+02
   600.000   3.86849742e+02
   600.500   3.84107822e+02
   601.000   3.81409126e+02
   601.500   3.78754571e+02
   602.000   3.76144979e+02
   602.500   3.73581084e+02
   603.000   3.71063532e+02
   603.500   3.68592892e+02
   604.000   3.66169655e+02
   604.500   3.63794243e+02
   605.000   3.61467010e+02
   605.500   3.59188247e+02
   606.000   3.56958188e+02
   606.500   3.54777011e+02
   607.000   3.52644844e+02
   607.500   3.50561768e+02
   608.000   3.48527817e+02
   608.500   3.46542989e+02
   609.000   3.44607242e+02
   609.500   3.42720499e+02
   610.000   3.40882653e+02
   610.500   3.39093566e+02
   611.000   3.37353077e+02
   611.500   3.35660997e+02
   612.000   3.34017118e+02
   612.500   3.32421212e+02
   613.000   3.30873033e+02
   613.500   3.29372320e+02
   614.000   3.27918799e+02
   614.500   3.26512183e+02
   615.000   3.25152175e+02
   615.500   3.23838470e+02
   616.000   3.22570754e+02
   616.500   3.21348709e+02
   617.000   3.20172012e+02
   617.500   3.19040335e+02
   618.000   3.17953348e+02
   618.500   3.16910721e+02
   619.000   3.15912122e+02
   619.500   3.14957221e+02
   620.000   3.14045688e+02
   620.500   3.13177194e+02
   621.000   3.12351416e+02
   621.500   3.11568033e+02
   622.000   3.10826726e+02
   622.500   3.10127183e+02
   623.000   3.09469098e+02
   623.500   3.08852168e+02
   624.000   3.08276098e+02
   624.500   3.07740599e+02
   625.000   3.07245389e+02
   625.500   3.06790195e+02
   626.000   3.06374748e+02
   626.500   3.05998790e+02
   627.000   3.05662071e+02
   627.500   3.05364348e+02
   628.000   3.05105388e+02
   628.500   3.04884967e+02
   629.000   3.04702870e+02
   629.500   3.04558890e+02
   630.000   3.04452832e+02
   630.500   3.04384510e+02
   631.000   3.04353746e+02
   631.500   3.04360374e+02
   632.000   3.04404237e+02
   632.500   3.04485189e+02
   633.000   3.04603094e+02
   633.500   3.04757826e+02
   634.000   3.04949270e+02
   634.500   3.05177321e+02
   635.000   3.05441886e+02
   635.500   3.05742880e+02
   636.000   3.06080232e+02
   636.500   3.06453880e+02
   637.000   3.06863773e+02
   637.500   3.07309871e+02
   638.000   3.07792146e+02
   638.500   3.08310580e+02
   639.000   3.08865166e+02
   639.500   3.09455908e+02
   640.000   3.10082823e+02
   640.500   3.10745938e+02
   641.000   3.11445291e+02
   641.500   3.12180931e+02
   642.000   3.12952920e+02
   642.500   3.13761330e+02
   643.000   3.14606245e+02
   643.500   3.15487762e+02
   644.000   3.16405987e+02
   644.500   3.17361040e+02
   645.000   3.18353050e+02
   645.500   3.19382162e+02
   646.000   3.20448528e+02
   646.500   3.21552316e+02
   647.000   3.22693703e+02
   647.500   3.23872880e+02
   648.000   3.25090050e+02
   648.500   3.26345428e+02
   649.000   3.27639239e+02
   649.500   3.28971725e+02
   650.000   3.30343135e+02
   650.500   3.31753736e+02
   651.000   3.33203803e+02
   651.500   3.34693627e+02
   652.000   3.36223510e+02
   652.500   3.37793766e+02
   653.000   3.39404725e+02
   653.500   3.41056728e+02
   654.000   3.42750128e+02
   654.500   3.44485295e+02
   655.000   3.46262607e+02
   655.500   3.48082462e+02
   656.000   3.49945265e+02
   656.500   3.51851439e+02
   657.000   3.53801418e+02
   657.500   3.55795653e+02
   658.000   3.57834606e+02
   658.500   3.59918754e+02
   659.000   3.62048588e+02
   659.500   3.64224613e+02
   660.000   3.66447350e+02
   660.500   3.68717330e+02
   661.000   3.71035104e+02
   661.500   3.73401232e+02
   662.000   3.75816294e+02
   662.500   3.78280879e+02
   663.000   3.80795595e+02
   663.500   3.83361063e+02
   664.000   3.85977918e+02
   664.500   3.88646810e+02
   665.000   3.91368405e+02
   665.500   3.94143382e+02
   666.000   3.96972436e+02
   666.500   3.99856276e+02
   667.000   4.02795625e+02
   667.500   4.05791220e+02
   668.000   4.08843815e+02
   668.500   4.11954176e+02
   669.000   4.15123084e+02
   669.500   4.18351332e+02
   670.000   4.21639729e+02
   670.500   4.24989097e+02
   671.000   4.28400270e+02
   671.500   4.31874096e+02
   672.000   4.35411435e+02
   672.500   4.39013160e+02
   673.000   4.42680153e+02
   673.500   4.46413310e+02
   674.000   4.50213536e+02
   674.500   4.54081747e+02
   675.000   4.58018868e+02
   675.500   4.62025833e+02
   676.000   4.66103583e+02
   676.500   4.70253066e+02
   677.000   4.74475237e+02
   677.500   4.78771056e+02
   678.000   4.83141486e+02
   678.500   4.87587494e+02
   679.000   4.92110047e+02
   679.500   4.96710114e+02
   680.000   5.01388661e+02
   680.500   5.06146654e+02
   681.000   5.10985050e+02
   681.500   5.15904804e+02
   682.000   5.20906861e+02
   682.500   5.25992154e+02
   683.000   5.31161607e+02
   683.500   5.36416128e+02
   684.000   5.41756606e+02
   684.500   5.47183913e+02
   685.000   5.52698896e+02
   685.500   5.58302381e+02
   686.000   5.63995161e+02
   686.500   5.69778000e+02
   687.000   5.75651627e+02
   687.500   5.81616735e+02
   688.000   5.87673971e+02
   688.500   5.93823940e+02
   689.000   6.00067198e+02
   689.500   6.06404246e+02
   690.000   6.12835528e+02
   690.500   6.19361428e+02
   691.000   6.25982263e+02
   691.500   6.32698279e+02
   692.000   6.39509650e+02
   692.500   6.46416468e+02
   693.000   6.53418741e+02
   693.500   6.60516390e+02
   694.000   6.67709242e+02
   694.500   6.74997025e+02
   695.000   6.82379368e+02
   695.500   6.89855788e+02
   696.000   6.97425696e+02
   696.500   7.05088384e+02
   697.000   7.12843025e+02
   697.500   7.20688672e+02
   698.000   7.28624248e+02
   698.500   7.36648549e+02
   699.000   7.44760238e+02
   699.500   7.52957844e+02
   700.000   7.61239762e+02
   700.500   7.69604248e+02
   701.000   7.78049423e+02
   701.500   7.86573271e+02
   702.000   7.95173642e+02
   702.500   8.03848252e+02
   703.000   8.12594687e+02
   703.500   8.21410408e+02
   704.000   8.30292755e+02
   704.500   8.39238953e+02
   705.000   8.48246120e+02
   705.500   8.57311277e+02
   706.000   8.66431355e+02
   706.500   8.75603206e+02
   707.000   8.84823618e+02
   707.500   8.94089328e+02
   708.000   9.03397032e+02
   708.500   9.12743410e+02
   709.000   9.22125134e+02
   709.500   9.31538893e+02
   710.000   9.40981409e+02
   710.500   9.50449457e+02
   711.000   9.59939890e+02
   711.500   9.69449658e+02
   712.000   9.78975829e+02
   712.500   9.88515617e+02
   713.000   9.98066403e+02
   713.500   1.00762576e+03
   714.000   1.01719146e+03
   714.500   1.02676153e+03
   715.000   1.03633426e+03
   715.500   1.04590820e+03
   716.000   1.05548222e+03
   716.500   1.06505551e+03
   717.000   1.07462759e+03
   717.500   1.08419836e+03
   718.000   1.09376807e+03
   718.500   1.10333737e+03
   719.000   1.11290731e+03
   719.500   1.12247936e+03
   720.000   1.13205538e+03
   720.500   1.14163766e+03
   721.000   1.15122893e+03
   721.500   1.16083233e+03
   722.000   1.17045140e+03
   722.500   1.18009015e+03
   723.000   1.18975293e+03
   723.500   1.19944455e+03
   724.000   1.20917015e+03
   724.500   1.21893529e+03
   725.000   1.22874586e+03
   725.500   1.23860807e+03
   726.000   1.24852849e+03
   726.500   1.25851394e+03
   727.000   1.26857154e+03
   727.500   1.27870864e+03
   728.000   1.28893281e+03
   728.500   1.29925183e+03
   729.000   1.30967363e+03
   729.500   1.32020628e+03
   730.000   1.33085798e+03
   730.500   1.34163697e+03
   731.000   1.35255159e+03
   731.500   1.36361018e+03
   732.000   1.37482107e+03
   732.500   1.38619258e+03
   733.000   1.39773295e+03
   733.500   1.40945035e+03
   734.000   1.42135280e+03
   734.500   1.43344823e+03
   735.000   1.44574437e+03
   735.500   1.45824875e+03
   736.000   1.47096871e+03
   736.500   1.48391132e+03
   737.000   1.49708340e+03
   737.500   1.51049147e+03
   738.000   1.52414172e+03
   738.500   1.53804002e+03
   739.000   1.55219187e+03
   739.500   1.56660239e+03
   740.000   1.58127628e+03
   740.500   1.59621779e+03
   741.000   1.61143075e+03
   741.500   1.62691847e+03
   742.000   1.64268379e+03
   742.500   1.65872899e+03
   743.000   1.67505580e+03
   743.500   1.69166538e+03
   744.000   1.70855828e+03
   744.500   1.72573440e+03
   745.000   1.74319301e+03
   745.500   1.76093266e+03
   746.000   1.77895122e+03
   746.500   1.79724577e+03
   747.000   1.81581267e+03
   747.500   1.83464744e+03
   748.000   1.85374479e+03
   748.500   1.87309856e+03
   749.000   1.89270170e+03
   749.500   1.91254625e+03
   750.000   1.93262331e+03
   750.500   1.95292299e+03
   751.000   1.97343440e+03
   751.500   1.99414564e+03
   752.000   2.01504372e+03
   752.500   2.03611462e+03
   753.000   2.05734320e+03
   753.500   2.07871318e+03
   754.000   2.10020720e+03
   754.500   2.12180672e+03
   755.000   2.14349204e+03
   755.500   2.16524232e+03
   756.000   2.18703555e+03
   756.500   2.20884856e+03
   757.000   2.23065703e+03
   757.500   2.25243551e+03
   758.000   2.27415742e+03
   758.500   2.29579512e+03
   759.000   2.31731989e+03
   759.500   2.33870200e+03
   760.000   2.35991077e+03
   760.500   2.38091460e+03
   761.000   2.40168105e+03
   761.500   2.42217692e+03
   762.000   2.44236830e+03
   762.500   2.46222071e+03
   763.000   2.48169913e+03
   763.500   2.50076818e+03
   764.000   2.51939219e+03
   764.500   2.53753531e+03
   765.000   2.55516169e+03
   765.500   2.57223557e+03
   766.000   2.58872142e+03
   766.500   2.60458412e+03
   767.000   2.61978908e+03
   767.500   2.63430242e+03
   768.000   2.64809108e+03
   768.500   2.66112303e+03
   769.000   2.67336738e+03
   769.500   2.68479457e+03
   770.000   2.69537649e+03
   770.500   2.70508663e+03
   771.000   2.71390026e+03
   771.500   2.72179451e+03
   772.000   2.72874851e+03
   772.500   2.73474354e+03
   773.000   2.73976308e+03
   773.500   2.74379293e+03
   774.000   2.74682130e+03
   774.500   2.74883885e+03
   775.000   2.74983875e+03
   775.500   2.74981672e+03
   776.000   2.74877105e+03
   776.500   2.74670258e+03
   777.000   2.74361474e+03
   777.500   2.73951347e+03
   778.000   2.73440720e+03
   778.500   2.72830679e+03
   779.000   2.72122547e+03
   779.500   2.71317875e+03
   780.000   2.70418431e+03
   780.500   2.69426189e+03
   781.000   2.68343321e+03
   781.500   2.67172181e+03
   782.000   2.65915290e+03
   782.500   2.64575328e+03
   783.000   2.63155113e+03
   783.500   2.61657590e+03
   784.000   2.60085814e+03
   784.500   2.58442937e+03
   785.000   2.56732190e+03
   785.500   2.54956872e+03
   786.000   2.53120328e+03
   786.500   2.51225945e+03
   787.000   2.49277128e+03
   787.500   2.47277295e+03
   788.000   2.45229857e+03
   788.500   2.43138211e+03
   789.000   2.41005728e+03
   789.500   2.38835739e+03
   790.000   2.36631530e+03
   790.500   2.34396329e+03
   791.000   2.32133300e+03
   791.500   2.29845535e+03
   792.000   2.27536046e+03
   792.500   2.25207763e+03
   793.000   2.22863526e+03
   793.500   2.20506080e+03
   794.000   2.18138074e+03
   794.500   2.15762057e+03
   795.000   2.13380476e+03
   795.500   2.10995674e+03
   796.000   2.08609890e+03
   796.500   2.06225258e+03
   797.000   2.03843806e+03
   797.500   2.01467458e+03
   798.000   1.99098035e+03
   798.500   1.96737256e+03
   799.000   1.94386738e+03
   799.500   1.92048000e+03
   800.000   1.89722465e+03
   800.500   1.87411462e+03
   801.000   1.85116227e+03
   801.500   1.82837909e+03
   802.000   1.80577570e+03
   802.500   1.78336189e+03
   803.000   1.76114666e+03
   803.500   1.73913823e+03
   804.000   1.71734410e+03
   804.500   1.69577105e+03
   805.000   1.67442519e+03
   805.500   1.65331199e+03
   806.000   1.63243632e+03
   806.500   1.61180244e+03
   807.000   1.59141408e+03
   807.500   1.57127446e+03
   808.000   1.55138628e+03
   808.500   1.53175179e+03
   809.000   1.51237280e+03
   809.500   1.49325071e+03
   810.000   1.47438654e+03
   810.500   1.45578093e+03
   811.000   1.43743421e+03
   811.500   1.41934636e+03
   812.000   1.40151710e+03
   812.500   1.38394585e+03
   813.000   1.36663179e+03
   813.500   1.34957388e+03
   814.000   1.33277083e+03
   814.500   1.31622118e+03
   815.000   1.29992327e+03
   815.500   1.28387527e+03
   816.000   1.26807523e+03
   816.500   1.25252102e+03
   817.000   1.23721040e+03
   817.500   1.22214102e+03
   818.000   1.20731042e+03
   818.500   1.19271606e+03
   819.000   1.17835530e+03
   819.500   1.16422545e+03
   820.000   1.15032374e+03
   820.500   1.13664737e+03
   821.000   1.12319345e+03
   821.500   1.10995909e+03
   822.000   1.09694136e+03
   822.500   1.08413730e+03
   823.000   1.07154391e+03
   823.500   1.05915822e+03
   824.000   1.04697722e+03
   824.500   1.03499789e+03
   825.000   1.02321722e+03
   825.500   1.01163222e+03
   826.000   1.00023989e+03
   826.500   9.89037235e+02
   827.000   9.78021287e+02
   827.500   9.67189090e+02
   828.000   9.56537708e+02
   828.500   9.46064227e+02
   829.000   9.35765758e+02
   829.500   9.25639437e+02
   830.000   9.15682428e+02
   830.500   9.05891924e+02
   831.000   8.96265151e+02
   831.500   8.86799363e+02
   832.000   8.77491851e+02
   832.500   8.68339939e+02
   833.000   8.59340985e+02
   833.500   8.50492384e+02
   834.000   8.41791567e+02
   834.500   8.33236000e+02
   835.000   8.24823190e+02
   835.500   8.16550679e+02
   836.000   8.08416046e+02
   836.500   8.00416912e+02
   837.000   7.92550932e+02
   837.500   7.84815801e+02
   838.000   7.77209252e+02
   838.500   7.69729057e+02
   839.000   7.62373024e+02
   839.500   7.55139001e+02
   840.000   7.48024872e+02
   840.500   7.41028560e+02
   841.000   7.34148022e+02
   841.500   7.27381256e+02
   842.000   7.20726294e+02
   842.500   7.14181203e+02
   843.000   7.07744089e+02
   843.500   7.01413091e+02
   844.000   6.95186383e+02
   844.500   6.89062174e+02
   845.000   6.83038706e+02
   845.500   6.77114256e+02
   846.000   6.71287134e+02
   846.500   6.65555680e+02
   847.000   6.59918269e+02
   847.500   6.54373306e+02
   848.000   6.48919226e+02
   848.500   6.43554497e+02
   849.000   6.38277614e+02
   849.500   6.33087104e+02
   850.000   6.27981521e+02
   850.500   6.22959448e+02
   851.000   6.18019495e+02
   851.500   6.13160300e+02
   852.000   6.08380527e+02
   852.500   6.03678867e+02
   853.000   5.99054035e+02
   853.500   5.94504771e+02
   854.000   5.90029841e+02
   854.500   5.85628033e+02
   855.000   5.81298160e+02
   855.500   5.77039056e+02
   856.000   5.72849578e+02
   856.500   5.68728604e+02
   857.000   5.64675035e+02
   857.500   5.60687789e+02
   858.000   5.56765806e+02
   858.500   5.52908047e+02
   859.000   5.49113488e+02
   859.500   5.45381127e+02
   860.000   5.41709977e+02
   860.500   5.38099070e+02
   861.000   5.34547453e+02
   861.500   5.31054192e+02
   862.000   5.27618366e+02
   862.500   5.24239070e+02
   863.000   5.20915413e+02
   863.500   5.17646521e+02
   864.000   5.14431529e+02
   864.500   5.11269590e+02
   865.000   5.08159866e+02
   865.500   5.05101534e+02
   866.000   5.02093780e+02
   866.500   4.99135805e+02
   867.000   4.96226817e+02
   867.500   4.93366038e+02
   868.000   4.90552699e+02
   868.500   4.87786040e+02
   869.000   4.85065312e+02
   869.500   4.82389775e+02
   870.000   4.79758697e+02
   870.500   4.77171356e+02
   871.000   4.74627037e+02
   871.500   4.72125036e+02
   872.000   4.69664655e+02
   872.500   4.67245204e+02
   873.000   4.64866003e+02
   873.500   4.62526378e+02
   874.000   4.60225664e+02
   874.500   4.57963203e+02
   875.000   4.55738348e+02
   875.500   4.53550456e+02
   876.000   4.51398895e+02
   876.500   4.49283042e+02
   877.000   4.47202282e+02
   877.500   4.45156009e+02
   878.000   4.43143626e+02
   878.500   4.41164547e+02
   879.000   4.39218196e+02
   879.500   4.37304007e+02
   880.000   4.35421426e+02
   880.500   4.33569910e+02
   881.000   4.31748927e+02
   881.500   4.29957960e+02
   882.000   4.28196504e+02
   882.500   4.26464067e+02
   883.000   4.24760171e+02
   883.500   4.23084354e+02
   884.000   4.21436169e+02
   884.500   4.19815182e+02
   885.000   4.18220979e+02
   885.500   4.16653161e+02
   886.000   4.15111343e+02
   886.500   4.13595163e+02
   887.000   4.12104271e+02
   887.500   4.10638338e+02
   888.000   4.09197052e+02
   888.500   4.07780119e+02
   889.000   4.06387263e+02
   889.500   4.05018228e+02
   890.000   4.03672773e+02
   890.500   4.02350678e+02
   891.000   4.01051739e+02
   891.500   3.99775771e+02
   892.000   3.98522604e+02
   892.500   3.97292087e+02
   893.000   3.96084084e+02
   893.500   3.94898478e+02
   894.000   3.93735163e+02
   894.500   3.92594051e+02
   895.000   3.91475069e+02
   895.500   3.90378154e+02
   896.000   3.89303260e+02
   896.500   3.88250351e+02
   897.000   3.87219404e+02
   897.500   3.86210407e+02
   898.000   3.85223356e+02
   898.500   3.84258259e+02
   899.000   3.83315134e+02
   899.500   3.82394003e+02
   900.000   3.81494900e+02
   900.500   3.80617862e+02
   901.000   3.79762937e+02
   901.500   3.78930174e+02
   902.000   3.78119631e+02
   902.500   3.77331368e+02
   903.000   3.76565450e+02
   903.500   3.75821946e+02
   904.000   3.75100929e+02
   904.500   3.74402474e+02
   905.000   3.73726658e+02
   905.500   3.73073562e+02
   906.000   3.72443268e+02
   906.500   3.71835860e+02
   907.000   3.71251424e+02
   907.500   3.70690046e+02
   908.000   3.70151816e+02
   908.500   3.69636822e+02
   909.000   3.69145157e+02
   909.500   3.68676911e+02
   910.000   3.68232179e+02
   910.500   3.67811055e+02
   911.000   3.67413634e+02
   911.500   3.67040013e+02
   912.000   3.66690291e+02
   912.500   3.66364567e+02
   913.000   3.66062943e+02
   913.500   3.65785521e+02
   914.000   3.65532406e+02
   914.500   3.65303704e+02
   915.000   3.65099526e+02
   915.500   3.64919980e+02
   916.000   3.64765182e+02
   916.500   3.64635247e+02
   917.000   3.64530294e+02
   917.500   3.64450445e+02
   918.000   3.64395825e+02
   918.500   3.64366563e+02
   919.000   3.64362790e+02
   919.500   3.64384644e+02
   920.000   3.64432263e+02
   920.500   3.64505792e+02
   921.000   3.64605379e+02
   921.500   3.64731178e+02
   922.000   3.64883346e+02
   922.500   3.65062045e+02
   923.000   3.65267445e+02
   923.500   3.65499719e+02
   924.000   3.65759045e+02
   924.500   3.66045608e+02
   925.000   3.66359599e+02
   925.500   3.66701215e+02
   926.000   3.67070659e+02
   926.500   3.67468141e+02
   927.000   3.67893877e+02
   927.500   3.68348091e+02
   928.000   3.68831014e+02
   928.500   3.69342883e+02
   929.000   3.69883943e+02
   929.500   3.70454449e+02
   930.000   3.71054659e+02
   930.500   3.71684844e+02
   931.000   3.72345280e+02
   931.500   3.73036253e+02
   932.000   3.73758056e+02
   932.500   3.74510993e+02
   933.000   3.75295376e+02
   933.500   3.76111525e+02
   934.000   3.76959770e+02
   934.500   3.77840451e+02
   935.000   3.78753917e+02
   935.500   3.79700528e+02
   936.000   3.80680652e+02
   936.500   3.81694669e+02
   937.000   3.82742969e+02
   937.500   3.83825951e+02
   938.000   3.84944027e+02
   938.500   3.86097619e+02
   939.000   3.87287160e+02
   939.500   3.88513093e+02
   940.000   3.89775875e+02
   940.500   3.91075973e+02
   941.000   3.92413865e+02
   941.500   3.93790043e+02
   942.000   3.95205010e+02
   942.500   3.96659280e+02
   943.000   3.98153383e+02
   943.500   3.99687857e+02
   944.000   4.01263256e+02
   944.500   4.02880146e+02
   945.000   4.04539106e+02
   945.500   4.06240727e+02
   946.000   4.07985614e+02
   946.500   4.09774387e+02
   947.000   4.11607678e+02
   947.500   4.13486131e+02
   948.000   4.15410407e+02
   948.500   4.17381177e+02
   949.000   4.19399130e+02
   949.500   4.21464965e+02
   950.000   4.23579397e+02
   950.500   4.25743155e+02
   951.000   4.27956980e+02
   951.500   4.30221628e+02
   952.000   4.32537871e+02
   952.500   4.34906490e+02
   953.000   4.37328283e+02
   953.500   4.39804061e+02
   954.000   4.42334649e+02
   954.500   4.44920882e+02
   955.000   4.47563611e+02
   955.500   4.50263699e+02
   956.000   4.53022020e+02
   956.500   4.55839462e+02
   957.000   4.58716923e+02
   957.500   4.61655313e+02
   958.000   4.64655552e+02
   958.500   4.67718569e+02
   959.000   4.70845305e+02
   959.500   4.74036708e+02
   960.000   4.77293734e+02
   960.500   4.80617346e+02
   961.000   4.84008513e+02
   961.500   4.87468209e+02
   962.000   4.90997414e+02
   962.500   4.94597106e+02
   963.000   4.98268270e+02
   963.500   5.02011887e+02
   964.000   5.05828938e+02
   964.500   5.09720400e+02
   965.000   5.13687245e+02
   965.500   5.17730438e+02
   966.000   5.21850936e+02
   966.500   5.26049683e+02
   967.000   5.30327609e+02
   967.500   5.34685628e+02
   968.000   5.39124635e+02
   968.500   5.43645503e+02
   969.000   5.48249079e+02
   969.500   5.52936182e+02
   970.000   5.57707596e+02
   970.500   5.62564074e+02
   971.000   5.67506323e+02
   971.500   5.72535010e+02
   972.000   5.77650752e+02
   972.500   5.82854110e+02
   973.000   5.88145589e+02
   973.500   5.93525629e+02
   974.000   5.98994601e+02
   974.500   6.04552799e+02
   975.000   6.10200438e+02
   975.500   6.15937644e+02
   976.000   6.21764449e+02
   976.500   6.27680782e+02
   977.000   6.33686466e+02
   977.500   6.39781207e+02
   978.000   6.45964587e+02
   978.500   6.52236057e+02
   979.000   6.58594930e+02
   979.500   6.65040367e+02
   980.000   6.71571377e+02
   980.500   6.78186800e+02
   981.000   6.84885306e+02
   981.500   6.91665377e+02
   982.000   6.98525308e+02
   982.500   7.05463190e+02
   983.000   7.12476906e+02
   983.500   7.19564118e+02
   984.000   7.26722262e+02
   984.500   7.33948538e+02
   985.000   7.41239902e+02
   985.500   7.48593056e+02
   986.000   7.56004444e+02
   986.500   7.63470243e+02
   987.000   7.70986358e+02
   987.500   7.78548415e+02
   988.000   7.86151756e+02
   988.500   7.93791437e+02
   989.000   8.01462224e+02
   989.500   8.09158592e+02
   990.000   8.16874726e+02
   990.500   8.24604516e+02
   991.000   8.32341570e+02
   991.500   8.40079207e+02
   992.000   8.47810471e+02
   992.500   8.55528137e+02
   993.000   8.63224718e+02
   993.500   8.70892478e+02
   994.000   8.78523448e+02
   994.500   8.86109440e+02
   995.000   8.93642064e+02
   995.500   9.01112752e+02
   996.000   9.08512778e+02
   996.500   9.15833282e+02
   997.000   9.23065300e+02
   997.500   9.30199792e+02
   998.000   9.37227671e+02
   998.500   9.44139838e+02
   999.000   9.50927220e+02
   999.500   9.57580798e+02
  1000.000   9.64091652e+02
  1000.500   9.70450998e+02
  1001.000   9.76650227e+02
  1001.500   9.82680943e+02
  1002.000   9.88535009e+02
  1002.500   9.94204581e+02
  1003.000   9.99682152e+02
  1003.500   1.00496059e+03
  1004.000   1.01003318e+03
  1004.500   1.01489364e+03
  1005.000   1.01953619e+03
  1005.500   1.02395557e+03
  1006.000   1.02814703e+03
  1006.500   1.03210643e+03
  1007.000   1.03583021e+03
  1007.500   1.03931542e+03
  1008.000   1.04255975e+03
  1008.500   1.04556152e+03
  1009.000   1.04831971e+03
  1009.500   1.05083395e+03
  1010.000   1.05310453e+03
  1010.500   1.05513237e+03
  1011.000   1.05691905e+03
  1011.500   1.05846677e+03
  1012.000   1.05977833e+03
  1012.500   1.06085711e+03
  1013.000   1.06170708e+03
  1013.500   1.06233270e+03
  1014.000   1.06273898e+03
  1014.500   1.06293135e+03
  1015.000   1.06291570e+03
  1015.500   1.06269829e+03
  1016.000   1.06228574e+03
  1016.500   1.06168497e+03
  1017.000   1.06090317e+03
  1017.500   1.05994774e+03
  1018.000   1.05882625e+03
  1018.500   1.05754640e+03
  1019.000   1.05611600e+03
  1019.500   1.05454287e+03
  1020.000   1.05283484e+03
  1020.500   1.05099971e+03
  1021.000   1.04904520e+03
  1021.500   1.04697888e+03
  1022.000   1.04480822e+03
  1022.500   1.04254047e+03
  1023.000   1.04018267e+03
  1023.500   1.03774162e+03
  1024.000   1.03522386e+03
  1024.500   1.03263562e+03
  1025.000   1.02998283e+03
  1025.500   1.02727110e+03
  1026.000   1.02450568e+03
  1026.500   1.02169147e+03
  1027.000   1.01883301e+03
  1027.500   1.01593448e+03
  1028.000   1.01299968e+03
  1028.500   1.01003204e+03
  1029.000   1.00703461e+03
  1029.500   1.00401009e+03
  1030.000   1.00096081e+03
  1030.500   9.97888754e+02
  1031.000   9.94795574e+02
  1031.500   9.91682590e+02
  1032.000   9.88550817e+02
  1032.500   9.85400976e+02
  1033.000   9.82233516e+02
  1033.500   9.79048631e+02
  1034.000   9.75846288e+02
  1034.500   9.72626240e+02
  1035.000   9.69388058e+02
  1035.500   9.66131152e+02
  1036.000   9.62854794e+02
  1036.500   9.59558146e+02
  1037.000   9.56240285e+02
  1037.500   9.52900229e+02
  1038.000   9.49536959e+02
  1038.500   9.46149447e+02
  1039.000   9.42736678e+02
  1039.500   9.39297677e+02
  1040.000   9.35831526e+02
  1040.500   9.32337389e+02
  1041.000   9.28814532e+02
  1041.500   9.25262339e+02
  1042.000   9.21680331e+02
  1042.500   9.18068179e+02
  1043.000   9.14425721e+02
  1043.500   9.10752971e+02
  1044.000   9.07050127e+02
  1044.500   9.03317582e+02
  1045.000   8.99555928e+02
  1045.500   8.95765961e+02
  1046.000   8.91948678e+02
  1046.500   8.88105285e+02
  1047.000   8.84237187e+02
  1047.500   8.80345989e+02
  1048.000   8.76433488e+02
  1048.500   8.72501669e+02
  1049.000   8.68552694e+02
  1049.500   8.64588894e+02
  1050.000   8.60612756e+02
  1050.500   8.56626914e+02
  1051.000   8.52634137e+02
  1051.500   8.48637311e+02
  1052.000   8.44639433e+02
  1052.500   8.40643588e+02
  1053.000   8.36652944e+02
  1053.500   8.32670731e+02
  1054.000   8.28700229e+02
  1054.500   8.24744755e+02
  1055.000   8.20807649e+02
  1055.500   8.16892259e+02
  1056.000   8.13001930e+02
  1056.500   8.09139992e+02
  1057.000   8.05309746e+02
  1057.500   8.01514458e+02
  1058.000   7.97757342e+02
  1058.500   7.94041558e+02
  1059.000   7.90370197e+02
  1059.500   7.86746277e+02
  1060.000   7.83172734e+02
  1060.500   7.79652420e+02
  1061.000   7.76188091e+02
  1061.500   7.72782406e+02
  1062.000   7.69437924e+02
  1062.500   7.66157100e+02
  1063.000   7.62942279e+02
  1063.500   7.59795699e+02
  1064.000   7.56719487e+02
  1064.500   7.53715658e+02
  1065.000   7.50786117e+02
  1065.500   7.47932654e+02
  1066.000   7.45156951e+02
  1066.500   7.42460578e+02
  1067.000   7.39844996e+02
  1067.500   7.37311557e+02
  1068.000   7.34861510e+02
  1068.500   7.32495997e+02
  1069.000   7.30216059e+02
  1069.500   7.28022638e+02
  1070.000   7.25916576e+02
  1070.500   7.23898624e+02
  1071.000   7.21969437e+02
  1071.500   7.20129582e+02
  1072.000   7.18379538e+02
  1072.500   7.16719699e+02
  1073.000   7.15150377e+02
  1073.500   7.13671806e+02
  1074.000   7.12284140e+02
  1074.500   7.10987462e+02
  1075.000   7.09781780e+02
  1075.500   7.08667033e+02
  1076.000   7.07643095e+02
  1076.500   7.06709772e+02
  1077.000   7.05866811e+02
  1077.500   7.05113895e+02
  1078.000   7.04450651e+02
  1078.500   7.03876652e+02
  1079.000   7.03391415e+02
  1079.500   7.02994406e+02
  1080.000   7.02685042e+02
  1080.500   7.02462695e+02
  1081.000   7.02326690e+02
  1081.500   7.02276311e+02
  1082.000   7.02310800e+02
  1082.500   7.02429364e+02
  1083.000   7.02631173e+02
  1083.500   7.02915362e+02
  1084.000   7.03281039e+02
  1084.500   7.03727281e+02
  1085.000   7.04253140e+02
  1085.500   7.04857644e+02
  1086.000   7.05539802e+02
  1086.500   7.06298604e+02
  1087.000   7.07133024e+02
  1087.500   7.08042025e+02
  1088.000   7.09024558e+02
  1088.500   7.10079569e+02
  1089.000   7.11205998e+02
  1089.500   7.12402782e+02
  1090.000   7.13668862e+02
  1090.500   7.15003180e+02
  1091.000   7.16404684e+02
  1091.500   7.17872331e+02
  1092.000   7.19405089e+02
  1092.500   7.21001939e+02
  1093.000   7.22661877e+02
  1093.500   7.24383915e+02
  1094.000   7.26167086e+02
  1094.500   7.28010445e+02
  1095.000   7.29913067e+02
  1095.500   7.31874052e+02
  1096.000   7.33892527e+02
  1096.500   7.35967646e+02
  1097.000   7.38098589e+02
  1097.500   7.40284567e+02
  1098.000   7.42524820e+02
  1098.500   7.44818622e+02
  1099.000   7.47165276e+02
  1099.500   7.49564120e+02
  1100.000   7.52014525e+02
  1100.500   7.54515899e+02
  1101.000   7.57067683e+02
  1101.500   7.59669358e+02
  1102.000   7.62320443e+02
  1102.500   7.65020495e+02
  1103.000   7.67769116e+02
  1103.500   7.70565949e+02
  1104.000   7.73410683e+02
  1104.500   7.76303054e+02
  1105.000   7.79242849e+02
  1105.500   7.82229907e+02
  1106.000   7.85264121e+02
  1106.500   7.88345446e+02
  1107.000   7.91473893e+02
  1107.500   7.94649544e+02
  1108.000   7.97872543e+02
  1108.500   8.01143111e+02
  1109.000   8.04461540e+02
  1109.500   8.07828204e+02
  1110.000   8.11243556e+02
  1110.500   8.14708137e+02
  1111.000   8.18222573e+02
  1111.500   8.21787584e+02
  1112.000   8.25403983e+02
  1112.500   8.29072678e+02
  1113.000   8.32794675e+02
  1113.500   8.36571078e+02
  1114.000   8.40403093e+02
  1114.500   8.44292022e+02
  1115.000   8.48239269e+02
  1115.500   8.52246334e+02
  1116.000   8.56314814e+02
  1116.500   8.60446400e+02
  1117.000   8.64642874e+02
  1117.500   8.68906102e+02
  1118.000   8.73238034e+02
  1118.500   8.77640696e+02
  1119.000   8.82116185e+02
  1119.500   8.86666659e+02
  1120.000   8.91294336e+02
  1120.500   8.96001478e+02
  1121.000   9.00790391e+02
  1121.500   9.05663408e+02
  1122.000   9.10622884e+02
  1122.500   9.15671185e+02
  1123.000   9.20810676e+02
  1123.500   9.26043712e+02
  1124.000   9.31372626e+02
  1124.500   9.36799717e+02
  1125.000   9.42327239e+02
  1125.500   9.47957391e+02
  1126.000   9.53692298e+02
  1126.500   9.59534009e+02
  1127.000   9.65484477e+02
  1127.500   9.71545550e+02
  1128.000   9.77718956e+02
  1128.500   9.84006297e+02
  1129.000   9.90409030e+02
  1129.500   9.96928458e+02
  1130.000   1.00356572e+03
  1130.500   1.01032177e+03
  1131.000   1.01719738e+03
  1131.500   1.02419312e+03
  1132.000   1.03130935e+03
  1132.500   1.03854620e+03
  1133.000   1.04590357e+03
  1133.500   1.05338111e+03
  1134.000   1.06097823e+03
  1134.500   1.06869406e+03
  1135.000   1.07652746e+03
  1135.500   1.08447702e+03
  1136.000   1.09254104e+03
  1136.500   1.10071749e+03
  1137.000   1.10900409e+03
  1137.500   1.11739819e+03
  1138.000   1.12589688e+03
  1138.500   1.13449689e+03
  1139.000   1.14319464e+03
  1139.500   1.15198622e+03
  1140.000   1.16086740e+03
  1140.500   1.16983362e+03
  1141.000   1.17888000e+03
  1141.500   1.18800131e+03
  1142.000   1.19719203e+03
  1142.500   1.20644631e+03
  1143.000   1.21575800e+03
  1143.500   1.22512067e+03
  1144.000   1.23452757e+03
  1144.500   1.24397170e+03
  1145.000   1.25344580e+03
  1145.500   1.26294236e+03
  1146.000   1.27245368e+03
  1146.500   1.28197181e+03
  1147.000   1.29148867e+03
  1147.500   1.30099598e+03
  1148.000   1.31048538e+03
  1148.500   1.31994838e+03
  1149.000   1.32937642e+03
  1149.500   1.33876092e+03
  1150.000   1.34809327e+03
  1150.500   1.35736492e+03
  1151.000   1.36656733e+03
  1151.500   1.37569210e+03
  1152.000   1.38473093e+03
  1152.500   1.39367570e+03
  1153.000   1.40251847e+03
  1153.500   1.41125154e+03
  1154.000   1.41986745e+03
  1154.500   1.42835907e+03
  1155.000   1.43671954e+03
  1155.500   1.44494237e+03
  1156.000   1.45302144e+03
  1156.500   1.46095100e+03
  1157.000   1.46872572e+03
  1157.500   1.47634068e+03
  1158.000   1.48379138e+03
  1158.500   1.49107378e+03
  1159.000   1.49818426e+03
  1159.500   1.50511962e+03
  1160.000   1.51187712e+03
  1160.500   1.51845442e+03
  1161.000   1.52484958e+03
  1161.500   1.53106107e+03
  1162.000   1.53708771e+03
  1162.500   1.54292864e+03
  1163.000   1.54858335e+03
  1163.500   1.55405158e+03
  1164.000   1.55933333e+03
  1164.500   1.56442879e+03
  1165.000   1.56933834e+03
  1165.500   1.57406247e+03
  1166.000   1.57860178e+03
  1166.500   1.58295689e+03
  1167.000   1.58712845e+03
  1167.500   1.59111706e+03
  1168.000   1.59492324e+03
  1168.500   1.59854741e+03
  1169.000   1.60198984e+03
  1169.500   1.60525061e+03
  1170.000   1.60832958e+03
  1170.500   1.61122637e+03
  1171.000   1.61394034e+03
  1171.500   1.61647055e+03
  1172.000   1.61881577e+03
  1172.500   1.62097445e+03
  1173.000   1.62294470e+03
  1173.500   1.62472433e+03
  1174.000   1.62631080e+03
  1174.500   1.62770128e+03
  1175.000   1.62889262e+03
  1175.500   1.62988138e+03
  1176.000   1.63066386e+03
  1176.500   1.63123613e+03
  1177.000   1.63159402e+03
  1177.500   1.63173322e+03
  1178.000   1.63164926e+03
  1178.500   1.63133757e+03
  1179.000   1.63079354e+03
  1179.500   1.63001254e+03
  1180.000   1.62898999e+03
  1180.500   1.62772141e+03
  1181.000   1.62620244e+03
  1181.500   1.62442892e+03
  1182.000   1.62239694e+03
  1182.500   1.62010288e+03
  1183.000   1.61754346e+03
  1183.500   1.61471578e+03
  1184.000   1.61161739e+03
  1184.500   1.60824630e+03
  1185.000   1.60460105e+03
  1185.500   1.60068070e+03
  1186.000   1.59648491e+03
  1186.500   1.59201395e+03
  1187.000   1.58726868e+03
  1187.500   1.58225063e+03
  1188.000   1.57696199e+03
  1188.500   1.57140558e+03
  1189.000   1.56558490e+03
  1189.500   1.55950411e+03
  1190.000   1.55316800e+03
  1190.500   1.54658201e+03
  1191.000   1.53975218e+03
  1191.500   1.53268517e+03
  1192.000   1.52538817e+03
  1192.500   1.51786894e+03
  1193.000   1.51013573e+03
  1193.500   1.50219724e+03
  1194.000   1.49406261e+03
  1194.500   1.48574139e+03
  1195.000   1.47724343e+03
  1195.500   1.46857893e+03
  1196.000   1.45975829e+03
  1196.500   1.45079218e+03
  1197.000   1.44169141e+03
  1197.500   1.43246690e+03
  1198.000   1.42312968e+03
  1198.500   1.41369081e+03
  1199.000   1.40416135e+03
  1199.500   1.39455230e+03
  1200.000   1.38487463e+03
  1200.500   1.37513915e+03
  1201.000   1.36535656e+03
  1201.500   1.35553737e+03
  1202.000   1.34569191e+03
  1202.500   1.33583027e+03
  1203.000   1.32596229e+03
  1203.500   1.31609754e+03
  1204.000   1.30624532e+03
  1204.500   1.29641463e+03
  1205.000   1.28661414e+03
  1205.500   1.27685221e+03
  1206.000   1.26713687e+03
  1206.500   1.25747581e+03
  1207.000   1.24787636e+03
  1207.500   1.23834554e+03
  1208.000   1.22889002e+03
  1208.500   1.21951609e+03
  1209.000   1.21022975e+03
  1209.500   1.20103663e+03
  1210.000   1.19194205e+03
  1210.500   1.18295098e+03
  1211.000   1.17406809e+03
  1211.500   1.16529773e+03
  1212.000   1.15664396e+03
  1212.500   1.14811054e+03
  1213.000   1.13970094e+03
  1213.500   1.13141836e+03
  1214.000   1.12326575e+03
  1214.500   1.11524578e+03
  1215.000   1.10736091e+03
  1215.500   1.09961334e+03
  1216.000   1.09200508e+03
  1216.500   1.08453789e+03
  1217.000   1.07721337e+03
  1217.500   1.07003292e+03
  1218.000   1.06299774e+03
  1218.500   1.05610890e+03
  1219.000   1.04936727e+03
  1219.500   1.04277361e+03
  1220.000   1.03632852e+03
  1220.500   1.03003248e+03
  1221.000   1.02388583e+03
  1221.500   1.01788882e+03
  1222.000   1.01204160e+03
  1222.500   1.00634418e+03
  1223.000   1.00079654e+03
  1223.500   9.95398534e+02
  1224.000   9.90149961e+02
  1224.500   9.85050544e+02
  1225.000   9.80099948e+02
  1225.500   9.75297777e+02
  1226.000   9.70643587e+02
  1226.500   9.66136885e+02
  1227.000   9.61777138e+02
  1227.500   9.57563777e+02
  1228.000   9.53496197e+02
  1228.500   9.49573769e+02
  1229.000   9.45795834e+02
  1229.500   9.42161715e+02
  1230.000   9.38670714e+02
  1230.500   9.35322119e+02
  1231.000   9.32115203e+02
  1231.500   9.29049231e+02
  1232.000   9.26123455e+02
  1232.500   9.23337123e+02
  1233.000   9.20689478e+02
  1233.500   9.18179758e+02
  1234.000   9.15807198e+02
  1234.500   9.13571034e+02
  1235.000   9.11470498e+02
  1235.500   9.09504825e+02
  1236.000   9.07673248e+02
  1236.500   9.05975001e+02
  1237.000   9.04409320e+02
  1237.500   9.02975441e+02
  1238.000   9.01672600e+02
  1238.500   9.00500032e+02
  1239.000   8.99456974e+02
  1239.500   8.98542658e+02
  1240.000   8.97756317e+02
  1240.500   8.97097178e+02
  1241.000   8.96564464e+02
  1241.500   8.96157393e+02
  1242.000   8.95875173e+02
  1242.500   8.95717004e+02
  1243.000   8.95682075e+02
  1243.500   8.95769560e+02
  1244.000   8.95978619e+02
  1244.500   8.96308392e+02
  1245.000   8.96758001e+02
  1245.500   8.97326542e+02
  1246.000   8.98013086e+02
  1246.500   8.98816676e+02
  1247.000   8.99736321e+02
  1247.500   9.00770995e+02
  1248.000   9.01919631e+02
  1248.500   9.03181121e+02
  1249.000   9.04554309e+02
  1249.500   9.06037988e+02
  1250.000   9.07630896e+02
  1250.500   9.09331711e+02
  1251.000   9.11139047e+02
  1251.500   9.13051448e+02
  1252.000   9.15067385e+02
  1252.500   9.17185251e+02
  1253.000   9.19403353e+02
  1253.500   9.21719910e+02
  1254.000   9.24133046e+02
  1254.500   9.26640786e+02
  1255.000   9.29241049e+02
  1255.500   9.31931643e+02
  1256.000   9.34710260e+02
  1256.500   9.37574470e+02
  1257.000   9.40521717e+02
  1257.500   9.43549312e+02
  1258.000   9.46654430e+02
  1258.500   9.49834105e+02
  1259.000   9.53085224e+02
  1259.500   9.56404523e+02
  1260.000   9.59788586e+02
  1260.500   9.63233841e+02
  1261.000   9.66736555e+02
  1261.500   9.70292835e+02
  1262.000   9.73898626e+02
  1262.500   9.77549709e+02
  1263.000   9.81241705e+02
  1263.500   9.84970074e+02
  1264.000   9.88730117e+02
  1264.500   9.92516983e+02
  1265.000   9.96325670e+02
  1265.500   1.00015103e+03
  1266.000   1.00398779e+03
  1266.500   1.00783053e+03
  1267.000   1.01167373e+03
  1267.500   1.01551177e+03
  1268.000   1.01933891e+03
  1268.500   1.02314936e+03
  1269.000   1.02693725e+03
  1269.500   1.03069668e+03
  1270.000   1.03442170e+03
  1270.500   1.03810639e+03
  1271.000   1.04174481e+03
  1271.500   1.04533108e+03
  1272.000   1.04885937e+03
  1272.500   1.05232393e+03
  1273.000   1.05571914e+03
  1273.500   1.05903949e+03
  1274.000   1.06227965e+03
  1274.500   1.06543447e+03
  1275.000   1.06849901e+03
  1275.500   1.07146858e+03
  1276.000   1.07433873e+03
  1276.500   1.07710531e+03
  1277.000   1.07976450e+03
  1277.500   1.08231278e+03
  1278.000   1.08474702e+03
  1278.500   1.08706442e+03
  1279.000   1.08926261e+03
  1279.500   1.09133960e+03
  1280.000   1.09329383e+03
  1280.500   1.09512417e+03
  1281.000   1.09682991e+03
  1281.500   1.09841081e+03
  1282.000   1.09986706e+03
  1282.500   1.10119928e+03
  1283.000   1.10240857e+03
  1283.500   1.10349643e+03
  1284.000   1.10446483e+03
  1284.500   1.10531613e+03
  1285.000   1.10605311e+03
  1285.500   1.10667894e+03
  1286.000   1.10719718e+03
  1286.500   1.10761173e+03
  1287.000   1.10792685e+03
  1287.500   1.10814710e+03
  1288.000   1.10827735e+03
  1288.500   1.10832272e+03
  1289.000   1.10828859e+03
  1289.500   1.10818056e+03
  1290.000   1.10800442e+03
  1290.500   1.10776613e+03
  1291.000   1.10747181e+03
  1291.500   1.10712766e+03
  1292.000   1.10674000e+03
  1292.500   1.10631523e+03
  1293.000   1.10585977e+03
  1293.500   1.10538007e+03
  1294.000   1.10488260e+03
  1294.500   1.10437378e+03
  1295.000   1.10386001e+03
  1295.500   1.10334764e+03
  1296.000   1.10284294e+03
  1296.500   1.10235209e+03
  1297.000   1.10188116e+03
  1297.500   1.10143614e+03
  1298.000   1.10102285e+03
  1298.500   1.10064702e+03
  1299.000   1.10031421e+03
  1299.500   1.10002983e+03
  1300.000   1.09979915e+03
  1300.500   1.09962727e+03
  1301.000   1.09951913e+03
  1301.500   1.09947950e+03
  1302.000   1.09951298e+03
  1302.500   1.09962402e+03
  1303.000   1.09981686e+03
  1303.500   1.10009563e+03
  1304.000   1.10046424e+03
  1304.500   1.10092646e+03
  1305.000   1.10148591e+03
  1305.500   1.10214603e+03
  1306.000   1.10291011e+03
  1306.500   1.10378130e+03
  1307.000   1.10476259e+03
  1307.500   1.10585684e+03
  1308.000   1.10706676e+03
  1308.500   1.10839493e+03
  1309.000   1.10984381e+03
  1309.500   1.11141573e+03
  1310.000   1.11311290e+03
  1310.500   1.11493743e+03
  1311.000   1.11689131e+03
  1311.500   1.11897642e+03
  1312.000   1.12119457e+03
  1312.500   1.12354745e+03
  1313.000   1.12603668e+03
  1313.500   1.12866379e+03
  1314.000   1.13143023e+03
  1314.500   1.13433740e+03
  1315.000   1.13738659e+03
  1315.500   1.14057908e+03
  1316.000   1.14391604e+03
  1316.500   1.14739863e+03
  1317.000   1.15102793e+03
  1317.500   1.15480499e+03
  1318.000   1.15873083e+03
  1318.500   1.16280641e+03
  1319.000   1.16703269e+03
  1319.500   1.17141058e+03
  1320.000   1.17594099e+03
  1320.500   1.18062479e+03
  1321.000   1.18546285e+03
  1321.500   1.19045606e+03
  1322.000   1.19560525e+03
  1322.500   1.20091132e+03
  1323.000   1.20637513e+03
  1323.500   1.21199757e+03
  1324.000   1.21777956e+03
  1324.500   1.22372202e+03
  1325.000   1.22982593e+03
  1325.500   1.23609227e+03
  1326.000   1.24252208e+03
  1326.500   1.24911646e+03
  1327.000   1.25587653e+03
  1327.500   1.26280347e+03
  1328.000   1.26989855e+03
  1328.500   1.27716308e+03
  1329.000   1.28459844e+03
  1329.500   1.29220611e+03
  1330.000   1.29998762e+03
  1330.500   1.30794461e+03
  1331.000   1.31607879e+03
  1331.500   1.32439198e+03
  1332.000   1.33288609e+03
  1332.500   1.34156314e+03
  1333.000   1.35042522e+03
  1333.500   1.35947457e+03
  1334.000   1.36871351e+03
  1334.500   1.37814447e+03
  1335.000   1.38777000e+03
  1335.500   1.39759275e+03
  1336.000   1.40761549e+03
  1336.500   1.41784109e+03
  1337.000   1.42827252e+03
  1337.500   1.43891289e+03
  1338.000   1.44976536e+03
  1338.500   1.46083324e+03
  1339.000   1.47211989e+03
  1339.500   1.48362881e+03
  1340.000   1.49536355e+03
  1340.500   1.50732774e+03
  1341.000   1.51952510e+03
  1341.500   1.53195942e+03
  1342.000   1.54463453e+03
  1342.500   1.55755433e+03
  1343.000   1.57072275e+03
  1343.500   1.58414376e+03
  1344.000   1.59782134e+03
  1344.500   1.61175951e+03
  1345.000   1.62596228e+03
  1345.500   1.64043365e+03
  1346.000   1.65517760e+03
  1346.500   1.67019807e+03
  1347.000   1.68549898e+03
  1347.500   1.70108416e+03
  1348.000   1.71695740e+03
  1348.500   1.73312239e+03
  1349.000   1.74958270e+03
  1349.500   1.76634182e+03
  1350.000   1.78340307e+03
  1350.500   1.80076965e+03
  1351.000   1.81844457e+03
  1351.500   1.83643068e+03
  1352.000   1.85473060e+03
  1352.500   1.87334674e+03
  1353.000   1.89228126e+03
  1353.500   1.91153607e+03
  1354.000   1.93111276e+03
  1354.500   1.95101264e+03
  1355.000   1.97123668e+03
  1355.500   1.99178548e+03
  1356.000   2.01265925e+03
  1356.500   2.03385782e+03
  1357.000   2.05538054e+03
  1357.500   2.07722633e+03
  1358.000   2.09939359e+03
  1358.500   2.12188020e+03
  1359.000   2.14468348e+03
  1359.500   2.16780016e+03
  1360.000   2.19122636e+03
  1360.500   2.21495754e+03
  1361.000   2.23898846e+03
  1361.500   2.26331316e+03
  1362.000   2.28792494e+03
  1362.500   2.31281628e+03
  1363.000   2.33797887e+03
  1363.500   2.36340351e+03
  1364.000   2.38908012e+03
  1364.500   2.41499767e+03
  1365.000   2.44114421e+03
  1365.500   2.46750676e+03
  1366.000   2.49407135e+03
  1366.500   2.52082293e+03
  1367.000   2.54774539e+03
  1367.500   2.57482154e+03
  1368.000   2.60203303e+03
  1368.500   2.62936040e+03
  1369.000   2.65678306e+03
  1369.500   2.68427921e+03
  1370.000   2.71182593e+03
  1370.500   2.73939912e+03
  1371.000   2.76697353e+03
  1371.500   2.79452275e+03
  1372.000   2.82201926e+03
  1372.500   2.84943444e+03
  1373.000   2.87673858e+03
  1373.500   2.90390098e+03
  1374.000   2.93088991e+03
  1374.500   2.95767277e+03
  1375.000   2.98421607e+03
  1375.500   3.01048553e+03
  1376.000   3.03644619e+03
  1376.500   3.06206247e+03
  1377.000   3.08729829e+03
  1377.500   3.11211716e+03
  1378.000   3.13648230e+03
  1378.500   3.16035680e+03
  1379.000   3.18370370e+03
  1379.500   3.20648618e+03
  1380.000   3.22866765e+03
  1380.500   3.25021198e+03
  1381.000   3.27108359e+03
  1381.500   3.29124762e+03
  1382.000   3.31067012e+03
  1382.500   3.32931822e+03
  1383.000   3.34716023e+03
  1383.500   3.36416588e+03
  1384.000   3.38030644e+03
  1384.500   3.39555486e+03
  1385.000   3.40988598e+03
  1385.500   3.42327659e+03
  1386.000   3.43570564e+03
  1386.500   3.44715431e+03
  1387.000   3.45760616e+03
  1387.500   3.46704719e+03
  1388.000   3.47546596e+03
  1388.500   3.48285368e+03
  1389.000   3.48920419e+03
  1389.500   3.49451408e+03
  1390.000   3.49878268e+03
  1390.500   3.50201208e+03
  1391.000   3.50420709e+03
  1391.500   3.50537526e+03
  1392.000   3.50552682e+03
  1392.500   3.50467461e+03
  1393.000   3.50283402e+03
  1393.500   3.50002291e+03
  1394.000   3.49626148e+03
  1394.500   3.49157222e+03
  1395.000   3.48597970e+03
  1395.500   3.47951053e+03
  1396.000   3.47219314e+03
  1396.500   3.46405767e+03
  1397.000   3.45513582e+03
  1397.500   3.44546067e+03
  1398.000   3.43506655e+03
  1398.500   3.42398884e+03
  1399.000   3.41226384e+03
  1399.500   3.39992857e+03
  1400.000   3.38702069e+03
  1400.500   3.37357823e+03
  1401.000   3.35963956e+03
  1401.500   3.34524315e+03
  1402.000   3.33042748e+03
  1402.500   3.31523092e+03
  1403.000   3.29969155e+03
  1403.500   3.28384710e+03
  1404.000   3.26773483e+03
  1404.500   3.25139140e+03
  1405.000   3.23485281e+03
  1405.500   3.21815432e+03
  1406.000   3.20133035e+03
  1406.500   3.18441445e+03
  1407.000   3.16743922e+03
  1407.500   3.15043626e+03
  1408.000   3.13343613e+03
  1408.500   3.11646836e+03
  1409.000   3.09956134e+03
  1409.500   3.08274237e+03
  1410.000   3.06603765e+03
  1410.500   3.04947219e+03
  1411.000   3.03306992e+03
  1411.500   3.01685361e+03
  1412.000   3.00084489e+03
  1412.500   2.98506430e+03
  1413.000   2.96953126e+03
  1413.500   2.95426413e+03
  1414.000   2.93928016e+03
  1414.500   2.92459561e+03
  1415.000   2.91022567e+03
  1415.500   2.89618457e+03
  1416.000   2.88248555e+03
  1416.500   2.86914093e+03
  1417.000   2.85616209e+03
  1417.500   2.84355955e+03
  1418.000   2.83134296e+03
  1418.500   2.81952114e+03
  1419.000   2.80810212e+03
  1419.500   2.79709314e+03
  1420.000   2.78650071e+03
  1420.500   2.77633062e+03
  1421.000   2.76658794e+03
  1421.500   2.75727710e+03
  1422.000   2.74840188e+03
  1422.500   2.73996540e+03
  1423.000   2.73197022e+03
  1423.500   2.72441830e+03
  1424.000   2.71731101e+03
  1424.500   2.71064921e+03
  1425.000   2.70443320e+03
  1425.500   2.69866279e+03
  1426.000   2.69333727e+03
  1426.500   2.68845543e+03
  1427.000   2.68401560e+03
  1427.500   2.68001565e+03
  1428.000   2.67645297e+03
  1428.500   2.67332452e+03
  1429.000   2.67062682e+03
  1429.500   2.66835594e+03
  1430.000   2.66650756e+03
  1430.500   2.66507689e+03
  1431.000   2.66405879e+03
  1431.500   2.66344765e+03
  1432.000   2.66323750e+03
  1432.500   2.66342196e+03
  1433.000   2.66399426e+03
  1433.500   2.66494723e+03
  1434.000   2.66627335e+03
  1434.500   2.66796468e+03
  1435.000   2.67001294e+03
  1435.500   2.67240948e+03
  1436.000   2.67514529e+03
  1436.500   2.67821100e+03
  1437.000   2.68159692e+03
  1437.500   2.68529301e+03
  1438.000   2.68928891e+03
  1438.500   2.69357394e+03
  1439.000   2.69813713e+03
  1439.500   2.70296722e+03
  1440.000   2.70805267e+03
  1440.500   2.71338168e+03
  1441.000   2.71894220e+03
  1441.500   2.72472197e+03
  1442.000   2.73070850e+03
  1442.500   2.73688912e+03
  1443.000   2.74325100e+03
  1443.500   2.74978114e+03
  1444.000   2.75646642e+03
  1444.500   2.76329364e+03
  1445.000   2.77024949e+03
  1445.500   2.77732064e+03
  1446.000   2.78449372e+03
  1446.500   2.79175536e+03
  1447.000   2.79909222e+03
  1447.500   2.80649105e+03
  1448.000   2.81393866e+03
  1448.500   2.82142200e+03
  1449.000   2.82892818e+03
  1449.500   2.83644449e+03
  1450.000   2.84395846e+03
  1450.500   2.85145786e+03
  1451.000   2.85893075e+03
  1451.500   2.86636555e+03
  1452.000   2.87375101e+03
  1452.500   2.88107630e+03
  1453.000   2.88833101e+03
  1453.500   2.89550523e+03
  1454.000   2.90258953e+03
  1454.500   2.90957504e+03
  1455.000   2.91645345e+03
  1455.500   2.92321710e+03
  1456.000   2.92985893e+03
  1456.500   2.93637259e+03
  1457.000   2.94275241e+03
  1457.500   2.94899348e+03
  1458.000   2.95509163e+03
  1458.500   2.96104347e+03
  1459.000   2.96684643e+03
  1459.500   2.97249874e+03
  1460.000   2.97799946e+03
  1460.500   2.98334850e+03
  1461.000   2.98854661e+03
  1461.500   2.99359537e+03
  1462.000   2.99849722e+03
  1462.500   3.00325543e+03
  1463.000   3.00787407e+03
  1463.500   3.01235804e+03
  1464.000   3.01671297e+03
  1464.500   3.02094530e+03
  1465.000   3.02506212e+03
  1465.500   3.02907126e+03
  1466.000   3.03298114e+03
  1466.500   3.03680079e+03
  1467.000   3.04053979e+03
  1467.500   3.04420819e+03
  1468.000   3.04781649e+03
  1468.500   3.05137553e+03
  1469.000   3.05489650e+03
  1469.500   3.05839080e+03
  1470.000   3.06187003e+03
  1470.500   3.06534590e+03
  1471.000   3.06883017e+03
  1471.500   3.07233457e+03
  1472.000   3.07587074e+03
  1472.500   3.07945017e+03
  1473.000   3.08308412e+03
  1473.500   3.08678357e+03
  1474.000   3.09055915e+03
  1474.500   3.09442106e+03
  1475.000   3.09837906e+03
  1475.500   3.10244237e+03
  1476.000   3.10661962e+03
  1476.500   3.11091882e+03
  1477.000   3.11534731e+03
  1477.500   3.11991170e+03
  1478.000   3.12461784e+03
  1478.500   3.12947080e+03
  1479.000   3.13447479e+03
  1479.500   3.13963322e+03
  1480.000   3.14494856e+03
  1480.500   3.15042243e+03
  1481.000   3.15605551e+03
  1481.500   3.16184757e+03
  1482.000   3.16779745e+03
  1482.500   3.17390305e+03
  1483.000   3.18016137e+03
  1483.500   3.18656844e+03
  1484.000   3.19311945e+03
  1484.500   3.19980864e+03
  1485.000   3.20662942e+03
  1485.500   3.21357435e+03
  1486.000   3.22063517e+03
  1486.500   3.22780287e+03
  1487.000   3.23506769e+03
  1487.500   3.24241918e+03
  1488.000   3.24984627e+03
  1488.500   3.25733729e+03
  1489.000   3.26488006e+03
  1489.500   3.27246191e+03
  1490.000   3.28006980e+03
  1490.500   3.28769033e+03
  1491.000   3.29530985e+03
  1491.500   3.30291454e+03
  1492.000   3.31049043e+03
  1492.500   3.31802354e+03
  1493.000   3.32549992e+03
  1493.500   3.33290574e+03
  1494.000   3.34022736e+03
  1494.500   3.34745143e+03
  1495.000   3.35456490e+03
  1495.500   3.36155519e+03
  1496.000   3.36841017e+03
  1496.500   3.37511828e+03
  1497.000   3.38166857e+03
  1497.500   3.38805076e+03
  1498.000   3.39425528e+03
  1498.500   3.40027334e+03
  1499.000   3.40609696e+03
  1499.500   3.41171898e+03
  1500.000   3.41713311e+03
  1500.500   3.42233394e+03
  1501.000   3.42731695e+03
  1501.500   3.43207850e+03
  1502.000   3.43661584e+03
  1502.500   3.44092709e+03
  1503.000   3.44501121e+03
  1503.500   3.44886799e+03
  1504.000   3.45249799e+03
  1504.500   3.45590252e+03
  1505.000   3.45908358e+03
  1505.500   3.46204381e+03
  1506.000   3.46478642e+03
  1506.500   3.46731516e+03
  1507.000   3.46963422e+03
  1507.500   3.47174818e+03
  1508.000   3.47366193e+03
  1508.500   3.47538060e+03
  1509.000   3.47690953e+03
  1509.500   3.47825412e+03
  1510.000   3.47941984e+03
  1510.500   3.48041212e+03
  1511.000   3.48123631e+03
  1511.500   3.48189759e+03
  1512.000   3.48240096e+03
  1512.500   3.48275115e+03
  1513.000   3.48295260e+03
  1513.500   3.48300941e+03
  1514.000   3.48292531e+03
  1514.500   3.48270365e+03
  1515.000   3.48234734e+03
  1515.500   3.48185887e+03
  1516.000   3.48124031e+03
  1516.500   3.48049329e+03
  1517.000   3.47961900e+03
  1517.500   3.47861823e+03
  1518.000   3.47749137e+03
  1518.500   3.47623846e+03
  1519.000   3.47485917e+03
  1519.500   3.47335290e+03
  1520.000   3.47171876e+03
  1520.500   3.46995568e+03
  1521.000   3.46806237e+03
  1521.500   3.46603746e+03
  1522.000   3.46387951e+03
  1522.500   3.46158703e+03
  1523.000   3.45915861e+03
  1523.500   3.45659292e+03
  1524.000   3.45388878e+03
  1524.500   3.45104522e+03
  1525.000   3.44806150e+03
  1525.500   3.44493722e+03
  1526.000   3.44167230e+03
  1526.500   3.43826707e+03
  1527.000   3.43472229e+03
  1527.500   3.43103919e+03
  1528.000   3.42721950e+03
  1528.500   3.42326548e+03
  1529.000   3.41917993e+03
  1529.500   3.41496624e+03
  1530.000   3.41062837e+03
  1530.500   3.40617085e+03
  1531.000   3.40159885e+03
  1531.500   3.39691809e+03
  1532.000   3.39213490e+03
  1532.500   3.38725618e+03
  1533.000   3.38228940e+03
  1533.500   3.37724257e+03
  1534.000   3.37212425e+03
  1534.500   3.36694348e+03
  1535.000   3.36170981e+03
  1535.500   3.35643323e+03
  1536.000   3.35112414e+03
  1536.500   3.34579338e+03
  1537.000   3.34045211e+03
  1537.500   3.33511185e+03
  1538.000   3.32978442e+03
  1538.500   3.32448190e+03
  1539.000   3.31921661e+03
  1539.500   3.31400108e+03
  1540.000   3.30884800e+03
  1540.500   3.30377022e+03
  1541.000   3.29878071e+03
  1541.500   3.29389249e+03
  1542.000   3.28911867e+03
  1542.500   3.28447238e+03
  1543.000   3.27996677e+03
  1543.500   3.27561494e+03
  1544.000   3.27142998e+03
  1544.500   3.26742492e+03
  1545.000   3.26361269e+03
  1545.500   3.26000614e+03
  1546.000   3.25661801e+03
  1546.500   3.25346089e+03
  1547.000   3.25054724e+03
  1547.500   3.24788938e+03
  1548.000   3.24549943e+03
  1548.500   3.24338937e+03
  1549.000   3.24157096e+03
  1549.500   3.24005581e+03
  1550.000   3.23885529e+03
  1550.500   3.23798060e+03
  1551.000   3.23744272e+03
  1551.500   3.23725243e+03
  1552.000   3.23742029e+03
  1552.500   3.23795666e+03
  1553.000   3.23887169e+03
  1553.500   3.24017531e+03
  1554.000   3.24187727e+03
  1554.500   3.24398709e+03
  1555.000   3.24651413e+03
  1555.500   3.24946752e+03
  1556.000   3.25285624e+03
  1556.500   3.25668905e+03
  1557.000   3.26097459e+03
  1557.500   3.26572128e+03
  1558.000   3.27093744e+03
  1558.500   3.27663120e+03
  1559.000   3.28281056e+03
  1559.500   3.28948342e+03
  1560.000   3.29665754e+03
  1560.500   3.30434056e+03
  1561.000   3.31254004e+03
  1561.500   3.32126346e+03
  1562.000   3.33051821e+03
  1562.500   3.34031161e+03
  1563.000   3.35065093e+03
  1563.500   3.36154341e+03
  1564.000   3.37299623e+03
  1564.500   3.38501657e+03
  1565.000   3.39761159e+03
  1565.500   3.41078844e+03
  1566.000   3.42455428e+03
  1566.500   3.43891630e+03
  1567.000   3.45388170e+03
  1567.500   3.46945774e+03
  1568.000   3.48565169e+03
  1568.500   3.50247092e+03
  1569.000   3.51992283e+03
  1569.500   3.53801490e+03
  1570.000   3.55675469e+03
  1570.500   3.57614985e+03
  1571.000   3.59620813e+03
  1571.500   3.61693736e+03
  1572.000   3.63834550e+03
  1572.500   3.66044061e+03
  1573.000   3.68323087e+03
  1573.500   3.70672458e+03
  1574.000   3.73093017e+03
  1574.500   3.75585621e+03
  1575.000   3.78151139e+03
  1575.500   3.80790454e+03
  1576.000   3.83504465e+03
  1576.500   3.86294082e+03
  1577.000   3.89160231e+03
  1577.500   3.92103853e+03
  1578.000   3.95125902e+03
  1578.500   3.98227347e+03
  1579.000   4.01409172e+03
  1579.500   4.04672372e+03
  1580.000   4.08017959e+03
  1580.500   4.11446957e+03
  1581.000   4.14960403e+03
  1581.500   4.18559347e+03
  1582.000   4.22244849e+03
  1582.500   4.26017982e+03
  1583.000   4.29879829e+03
  1583.500   4.33831484e+03
  1584.000   4.37874046e+03
  1584.500   4.42008626e+03
  1585.000   4.46236338e+03
  1585.500   4.50558304e+03
  1586.000   4.54975647e+03
  1586.500   4.59489496e+03
  1587.000   4.64100977e+03
  1587.500   4.68811217e+03
  1588.000   4.73621342e+03
  1588.500   4.78532469e+03
  1589.000   4.83545712e+03
  1589.500   4.88662174e+03
  1590.000   4.93882947e+03
  1590.500   4.99209108e+03
  1591.000   5.04641718e+03
  1591.500   5.10181818e+03
  1592.000   5.15830426e+03
  1592.500   5.21588535e+03
  1593.000   5.27457107e+03
  1593.500   5.33437072e+03
  1594.000   5.39529324e+03
  1594.500   5.45734713e+03
  1595.000   5.52054047e+03
  1595.500   5.58488084e+03
  1596.000   5.65037528e+03
  1596.500   5.71703024e+03
  1597.000   5.78485154e+03
  1597.500   5.85384430e+03
  1598.000   5.92401291e+03
  1598.500   5.99536094e+03
  1599.000   6.06789113e+03
  1599.500   6.14160527e+03
  1600.000   6.21650418e+03
  1600.500   6.29258761e+03
  1601.000   6.36985421e+03
  1601.500   6.44830143e+03
  1602.000   6.52792543e+03
  1602.500   6.60872105e+03
  1603.000   6.69068170e+03
  1603.500   6.77379925e+03
  1604.000   6.85806401e+03
  1604.500   6.94346458e+03
  1605.000   7.02998779e+03
  1605.500   7.11761859e+03
  1606.000   7.20633997e+03
  1606.500   7.29613281e+03
  1607.000   7.38697586e+03
  1607.500   7.47884555e+03
  1608.000   7.57171592e+03
  1608.500   7.66555851e+03
  1609.000   7.76034222e+03
  1609.500   7.85603323e+03
  1610.000   7.95259485e+03
  1610.500   8.04998740e+03
  1611.000   8.14816813e+03
  1611.500   8.24709105e+03
  1612.000   8.34670682e+03
  1612.500   8.44696269e+03
  1613.000   8.54780227e+03
  1613.500   8.64916554e+03
  1614.000   8.75098866e+03
  1614.500   8.85320390e+03
  1615.000   8.95573953e+03
  1615.500   9.05851976e+03
  1616.000   9.16146462e+03
  1616.500   9.26448994e+03
  1617.000   9.36750728e+03
  1617.500   9.47042388e+03
  1618.000   9.57314267e+03
  1618.500   9.67556226e+03
  1619.000   9.77757696e+03
  1619.500   9.87907683e+03
  1620.000   9.97994776e+03
  1620.500   1.00800715e+04
  1621.000   1.01793261e+04
  1621.500   1.02775854e+04
  1622.000   1.03747199e+04
  1622.500   1.04705969e+04
  1623.000   1.05650803e+04
  1623.500   1.06580313e+04
  1624.000   1.07493087e+04
  1624.500   1.08387690e+04
  1625.000   1.09262673e+04
  1625.500   1.10116571e+04
  1626.000   1.10947915e+04
  1626.500   1.11755230e+04
  1627.000   1.12537047e+04
  1627.500   1.13291901e+04
  1628.000   1.14018346e+04
  1628.500   1.14714954e+04
  1629.000   1.15380323e+04
  1629.500   1.16013088e+04
  1630.000   1.16611919e+04
  1630.500   1.17175535e+04
  1631.000   1.17702709e+04
  1631.500   1.18192270e+04
  1632.000   1.18643116e+04
  1632.500   1.19054214e+04
  1633.000   1.19424611e+04
  1633.500   1.19753435e+04
  1634.000   1.20039903e+04
  1634.500   1.20283326e+04
  1635.000   1.20483109e+04
  1635.500   1.20638763e+04
  1636.000   1.20749897e+04
  1636.500   1.20816230e+04
  1637.000   1.20837590e+04
  1637.500   1.20813911e+04
  1638.000   1.20745241e+04
  1638.500   1.20631734e+04
  1639.000   1.20473657e+04
  1639.500   1.20271381e+04
  1640.000   1.20025384e+04
  1640.500   1.19736247e+04
  1641.000   1.19404650e+04
  1641.500   1.19031368e+04
  1642.000   1.18617268e+04
  1642.500   1.18163301e+04
  1643.000   1.17670500e+04
  1643.500   1.17139974e+04
  1644.000   1.16572898e+04
  1644.500   1.15970513e+04
  1645.000   1.15334113e+04
  1645.500   1.14665046e+04
  1646.000   1.13964700e+04
  1646.500   1.13234499e+04
  1647.000   1.12475899e+04
  1647.500   1.11690378e+04
  1648.000   1.10879432e+04
  1648.500   1.10044566e+04
  1649.000   1.09187292e+04
  1649.500   1.08309119e+04
  1650.000   1.07411551e+04
  1650.500   1.06496079e+04
  1651.000   1.05564179e+04
  1651.500   1.04617305e+04
  1652.000   1.03656885e+04
  1652.500   1.02684320e+04
  1653.000   1.01700978e+04
  1653.500   1.00708190e+04
  1654.000   9.97072509e+03
  1654.500   9.86994132e+03
  1655.000   9.76858877e+03
  1655.500   9.66678405e+03
  1656.000   9.56463918e+03
  1656.500   9.46226150e+03
  1657.000   9.35975356e+03
  1657.500   9.25721308e+03
  1658.000   9.15473293e+03
  1658.500   9.05240108e+03
  1659.000   8.95030068e+03
  1659.500   8.84851001e+03
  1660.000   8.74710261e+03
  1660.500   8.64614730e+03
  1661.000   8.54570827e+03
  1661.500   8.44584518e+03
  1662.000   8.34661329e+03
  1662.500   8.24806350e+03
  1663.000   8.15024259e+03
  1663.500   8.05319323e+03
  1664.000   7.95695421e+03
  1664.500   7.86156055e+03
  1665.000   7.76704365e+03
  1665.500   7.67343142e+03
  1666.000   7.58074848e+03
  1666.500   7.48901627e+03
  1667.000   7.39825324e+03
  1667.500   7.30847499e+03
  1668.000   7.21969443e+03
  1668.500   7.13192191e+03
  1669.000   7.04516543e+03
  1669.500   6.95943074e+03
  1670.000   6.87472152e+03
  1670.500   6.79103952e+03
  1671.000   6.70838469e+03
  1671.500   6.62675534e+03
  1672.000   6.54614828e+03
  1672.500   6.46655893e+03
  1673.000   6.38798148e+03
  1673.500   6.31040901e+03
  1674.000   6.23383357e+03
  1674.500   6.15824637e+03
  1675.000   6.08363783e+03
  1675.500   6.00999771e+03
  1676.000   5.93731522e+03
  1676.500   5.86557910e+03
  1677.000   5.79477772e+03
  1677.500   5.72489915e+03
  1678.000   5.65593127e+03
  1678.500   5.58786181e+03
  1679.000   5.52067843e+03
  1679.500   5.45436879e+03
  1680.000   5.38892059e+03
  1680.500   5.32432163e+03
  1681.000   5.26055985e+03
  1681.500   5.19762338e+03
  1682.000   5.13550054e+03
  1682.500   5.07417993e+03
  1683.000   5.01365036e+03
  1683.500   4.95390098e+03
  1684.000   4.89492119e+03
  1684.500   4.83670072e+03
  1685.000   4.77922959e+03
  1685.500   4.72249816e+03
  1686.000   4.66649706e+03
  1686.500   4.61121727e+03
  1687.000   4.55665004e+03
  1687.500   4.50278690e+03
  1688.000   4.44961969e+03
  1688.500   4.39714049e+03
  1689.000   4.34534162e+03
  1689.500   4.29421566e+03
  1690.000   4.24375539e+03
  1690.500   4.19395378e+03
  1691.000   4.14480400e+03
  1691.500   4.09629938e+03
  1692.000   4.04843339e+03
  1692.500   4.00119964e+03
  1693.000   3.95459185e+03
  1693.500   3.90860384e+03
  1694.000   3.86322951e+03
  1694.500   3.81846283e+03
  1695.000   3.77429783e+03
  1695.500   3.73072858e+03
  1696.000   3.68774920e+03
  1696.500   3.64535380e+03
  1697.000   3.60353654e+03
  1697.500   3.56229157e+03
  1698.000   3.52161303e+03
  1698.500   3.48149507e+03
  1699.000   3.44193182e+03
  1699.500   3.40291741e+03
  1700.000   3.36444592e+03
  1700.500   3.32651144e+03
  1701.000   3.28910803e+03
  1701.500   3.25222972e+03
  1702.000   3.21587052e+03
  1702.500   3.18002443e+03
  1703.000   3.14468540e+03
  1703.500   3.10984739e+03
  1704.000   3.07550433e+03
  1704.500   3.04165014e+03
  1705.000   3.00827871e+03
  1705.500   2.97538395e+03
  1706.000   2.94295974e+03
  1706.500   2.91099996e+03
  1707.000   2.87949850e+03
  1707.500   2.84844924e+03
  1708.000   2.81784607e+03
  1708.500   2.78768291e+03
  1709.000   2.75795367e+03
  1709.500   2.72865229e+03
  1710.000   2.69977272e+03
  1710.500   2.67130895e+03
  1711.000   2.64325499e+03
  1711.500   2.61560488e+03
  1712.000   2.58835270e+03
  1712.500   2.56149256e+03
  1713.000   2.53501862e+03
  1713.500   2.50892507e+03
  1714.000   2.48320616e+03
  1714.500   2.45785619e+03
  1715.000   2.43286948e+03
  1715.500   2.40824045e+03
  1716.000   2.38396353e+03
  1716.500   2.36003323e+03
  1717.000   2.33644411e+03
  1717.500   2.31319080e+03
  1718.000   2.29026799e+03
  1718.500   2.26767041e+03
  1719.000   2.24539288e+03
  1719.500   2.22343027e+03
  1720.000   2.20177752e+03
  1720.500   2.18042964e+03
  1721.000   2.15938169e+03
  1721.500   2.13862882e+03
  1722.000   2.11816622e+03
  1722.500   2.09798919e+03
  1723.000   2.07809305e+03
  1723.500   2.05847321e+03
  1724.000   2.03912516e+03
  1724.500   2.02004444e+03
  1725.000   2.00122667e+03
  1725.500   1.98266752e+03
  1726.000   1.96436275e+03
  1726.500   1.94630817e+03
  1727.000   1.92849967e+03
  1727.500   1.91093319e+03
  1728.000   1.89360476e+03
  1728.500   1.87651046e+03
  1729.000   1.85964642e+03
  1729.500   1.84300887e+03
  1730.000   1.82659407e+03
  1730.500   1.81039837e+03
  1731.000   1.79441817e+03
  1731.500   1.77864992e+03
  1732.000   1.76309015e+03
  1732.500   1.74773544e+03
  1733.000   1.73258244e+03
  1733.500   1.71762784e+03
  1734.000   1.70286841e+03
  1734.500   1.68830096e+03
  1735.000   1.67392236e+03
  1735.500   1.65972955e+03
  1736.000   1.64571949e+03
  1736.500   1.63188924e+03
  1737.000   1.61823587e+03
  1737.500   1.60475653e+03
  1738.000   1.59144841e+03
  1738.500   1.57830876e+03
  1739.000   1.56533486e+03
  1739.500   1.55252406e+03
  1740.000   1.53987374e+03
  1740.500   1.52738135e+03
  1741.000   1.51504437e+03
  1741.500   1.50286032e+03
  1742.000   1.49082677e+03
  1742.500   1.47894135e+03
  1743.000   1.46720171e+03
  1743.500   1.45560556e+03
  1744.000   1.44415064e+03
  1744.500   1.43283474e+03
  1745.000   1.42165567e+03
  1745.500   1.41061131e+03
  1746.000   1.39969956e+03
  1746.500   1.38891836e+03
  1747.000   1.37826568e+03
  1747.500   1.36773954e+03
  1748.000   1.35733800e+03
  1748.500   1.34705913e+03
  1749.000   1.33690107e+03
  1749.500   1.32686195e+03
  1750.000   1.31693997e+03
  1750.500   1.30713336e+03
  1751.000   1.29744035e+03
  1751.500   1.28785924e+03
  1752.000   1.27838833e+03
  1752.500   1.26902597e+03
  1753.000   1.25977054e+03
  1753.500   1.25062044e+03
  1754.000   1.24157409e+03
  1754.500   1.23262996e+03
  1755.000   1.22378653e+03
  1755.500   1.21504231e+03
  1756.000   1.20639585e+03
  1756.500   1.19784570e+03
  1757.000   1.18939046e+03
  1757.500   1.18102875e+03
  1758.000   1.17275919e+03
  1758.500   1.16458046e+03
  1759.000   1.15649123e+03
  1759.500   1.14849023e+03
  1760.000   1.14057617e+03
  1760.500   1.13274781e+03
  1761.000   1.12500394e+03
  1761.500   1.11734333e+03
  1762.000   1.10976482e+03
  1762.500   1.10226723e+03
  1763.000   1.09484943e+03
  1763.500   1.08751029e+03
  1764.000   1.08024870e+03
  1764.500   1.07306359e+03
  1765.000   1.06595387e+03
  1765.500   1.05891852e+03
  1766.000   1.05195648e+03
  1766.500   1.04506676e+03
  1767.000   1.03824834e+03
  1767.500   1.03150026e+03
  1768.000   1.02482155e+03
  1768.500   1.01821126e+03
  1769.000   1.01166847e+03
  1769.500   1.00519224e+03
  1770.000   9.98781684e+02
  1770.500   9.92435916e+02
  1771.000   9.86154062e+02
  1771.500   9.79935265e+02
  1772.000   9.73778682e+02
  1772.500   9.67683484e+02
  1773.000   9.61648854e+02
  1773.500   9.55673990e+02
  1774.000   9.49758103e+02
  1774.500   9.43900415e+02
  1775.000   9.38100163e+02
  1775.500   9.32356595e+02
  1776.000   9.26668971e+02
  1776.500   9.21036563e+02
  1777.000   9.15458654e+02
  1777.500   9.09934540e+02
  1778.000   9.04463527e+02
  1778.500   8.99044933e+02
  1779.000   8.93678085e+02
  1779.500   8.88362323e+02
  1780.000   8.83096995e+02
  1780.500   8.77881460e+02
  1781.000   8.72715089e+02
  1781.500   8.67597261e+02
  1782.000   8.62527363e+02
  1782.500   8.57504796e+02
  1783.000   8.52528966e+02
  1783.500   8.47599290e+02
  1784.000   8.42715194e+02
  1784.500   8.37876112e+02
  1785.000   8.33081489e+02
  1785.500   8.28330776e+02
  1786.000   8.23623432e+02
  1786.500   8.18958927e+02
  1787.000   8.14336737e+02
  1787.500   8.09756346e+02
  1788.000   8.05217247e+02
  1788.500   8.00718938e+02
  1789.000   7.96260928e+02
  1789.500   7.91842731e+02
  1790.000   7.87463869e+02
  1790.500   7.83123870e+02
  1791.000   7.78822272e+02
  1791.500   7.74558616e+02
  1792.000   7.70332452e+02
  1792.500   7.66143337e+02
  1793.000   7.61990834e+02
  1793.500   7.57874510e+02
  1794.000   7.53793943e+02
  1794.500   7.49748713e+02
  1795.000   7.45738408e+02
  1795.500   7.41762621e+02
  1796.000   7.37820954e+02
  1796.500   7.33913009e+02
  1797.000   7.30038400e+02
  1797.500   7.26196741e+02
  1798.000   7.22387656e+02
  1798.500   7.18610772e+02
  1799.000   7.14865721e+02
  1799.500   7.11152141e+02
  1800.000   7.07469675e+02
  1800.500   7.03817972e+02
  1801.000   7.00196685e+02
  1801.500   6.96605471e+02
  1802.000   6.93043993e+02
  1802.500   6.89511918e+02
  1803.000   6.86008919e+02
  1803.500   6.82534672e+02
  1804.000   6.79088859e+02
  1804.500   6.75671164e+02
  1805.000   6.72281278e+02
  1805.500   6.68918894e+02
  1806.000   6.65583711e+02
  1806.500   6.62275432e+02
  1807.000   6.58993762e+02
  1807.500   6.55738413e+02
  1808.000   6.52509098e+02
  1808.500   6.49305536e+02
  1809.000   6.46127448e+02
  1809.500   6.42974562e+02
  1810.000   6.39846605e+02
  1810.500   6.36743312e+02
  1811.000   6.33664419e+02
  1811.500   6.30609666e+02
  1812.000   6.27578796e+02
  1812.500   6.24571557e+02
  1813.000   6.21587700e+02
  1813.500   6.18626977e+02
  1814.000   6.15689145e+02
  1814.500   6.12773966e+02
  1815.000   6.09881201e+02
  1815.500   6.07010618e+02
  1816.000   6.04161986e+02
  1816.500   6.01335076e+02
  1817.000   5.98529665e+02
  1817.500   5.95745531e+02
  1818.000   5.92982454e+02
  1818.500   5.90240219e+02
  1819.000   5.87518612e+02
  1819.500   5.84817423e+02
  1820.000   5.82136444e+02
  1820.500   5.79475469e+02
  1821.000   5.76834296e+02
  1821.500   5.74212725e+02
  1822.000   5.71610558e+02
  1822.500   5.69027600e+02
  1823.000   5.66463659e+02
  1823.500   5.63918544e+02
  1824.000   5.61392067e+02
  1824.500   5.58884044e+02
  1825.000   5.56394291e+02
  1825.500   5.53922627e+02
  1826.000   5.51468873e+02
  1826.500   5.49032853e+02
  1827.000   5.46614394e+02
  1827.500   5.44213321e+02
  1828.000   5.41829467e+02
  1828.500   5.39462662e+02
  1829.000   5.37112741e+02
  1829.500   5.34779541e+02
  1830.000   5.32462898e+02
  1830.500   5.30162654e+02
  1831.000   5.27878650e+02
  1831.500   5.25610731e+02
  1832.000   5.23358742e+02
  1832.500   5.21122531e+02
  1833.000   5.18901947e+02
  1833.500   5.16696842e+02
  1834.000   5.14507069e+02
  1834.500   5.12332483e+02
  1835.000   5.10172940e+02
  1835.500   5.08028299e+02
  1836.000   5.05898419e+02
  1836.500   5.03783162e+02
  1837.000   5.01682391e+02
  1837.500   4.99595972e+02
  1838.000   4.97523770e+02
  1838.500   4.95465654e+02
  1839.000   4.93421493e+02
  1839.500   4.91391158e+02
  1840.000   4.89374522e+02
  1840.500   4.87371458e+02
  1841.000   4.85381842e+02
  1841.500   4.83405551e+02
  1842.000   4.81442464e+02
  1842.500   4.79492459e+02
  1843.000   4.77555418e+02
  1843.500   4.75631224e+02
  1844.000   4.73719761e+02
  1844.500   4.71820912e+02
  1845.000   4.69934566e+02
  1845.500   4.68060608e+02
  1846.000   4.66198930e+02
  1846.500   4.64349419e+02
  1847.000   4.62511969e+02
  1847.500   4.60686472e+02
  1848.000   4.58872821e+02
  1848.500   4.57070912e+02
  1849.000   4.55280640e+02
  1849.500   4.53501904e+02
  1850.000   4.51734602e+02
  1850.500   4.49978632e+02
  1851.000   4.48233897e+02
  1851.500   4.46500298e+02
  1852.000   4.44777737e+02
  1852.500   4.43066119e+02
  1853.000   4.41365349e+02
  1853.500   4.39675333e+02
  1854.000   4.37995978e+02
  1854.500   4.36327191e+02
  1855.000   4.34668883e+02
  1855.500   4.33020963e+02
  1856.000   4.31383342e+02
  1856.500   4.29755933e+02
  1857.000   4.28138647e+02
  1857.500   4.26531400e+02
  1858.000   4.24934105e+02
  1858.500   4.23346679e+02
  1859.000   4.21769039e+02
  1859.500   4.20201101e+02
  1860.000   4.18642784e+02
  1860.500   4.17094007e+02
  1861.000   4.15554690e+02
  1861.500   4.14024755e+02
  1862.000   4.12504123e+02
  1862.500   4.10992717e+02
  1863.000   4.09490460e+02
  1863.500   4.07997276e+02
  1864.000   4.06513091e+02
  1864.500   4.05037829e+02
  1865.000   4.03571418e+02
  1865.500   4.02113786e+02
  1866.000   4.00664859e+02
  1866.500   3.99224566e+02
  1867.000   3.97792839e+02
  1867.500   3.96369605e+02
  1868.000   3.94954798e+02
  1868.500   3.93548347e+02
  1869.000   3.92150187e+02
  1869.500   3.90760249e+02
  1870.000   3.89378467e+02
  1870.500   3.88004776e+02
  1871.000   3.86639111e+02
  1871.500   3.85281408e+02
  1872.000   3.83931603e+02
  1872.500   3.82589634e+02
  1873.000   3.81255437e+02
  1873.500   3.79928951e+02
  1874.000   3.78610115e+02
  1874.500   3.77298869e+02
  1875.000   3.75995152e+02
  1875.500   3.74698906e+02
  1876.000   3.73410072e+02
  1876.500   3.72128591e+02
  1877.000   3.70854406e+02
  1877.500   3.69587461e+02
  1878.000   3.68327698e+02
  1878.500   3.67075061e+02
  1879.000   3.65829497e+02
  1879.500   3.64590949e+02
  1880.000   3.63359364e+02
  1880.500   3.62134687e+02
  1881.000   3.60916867e+02
  1881.500   3.59705849e+02
  1882.000   3.58501582e+02
  1882.500   3.57304015e+02
  1883.000   3.56113095e+02
  1883.500   3.54928773e+02
  1884.000   3.53750998e+02
  1884.500   3.52579721e+02
  1885.000   3.51414892e+02
  1885.500   3.50256463e+02
  1886.000   3.49104386e+02
  1886.500   3.47958611e+02
  1887.000   3.46819094e+02
  1887.500   3.45685785e+02
  1888.000   3.44558639e+02
  1888.500   3.43437610e+02
  1889.000   3.42322652e+02
  1889.500   3.41213721e+02
  1890.000   3.40110770e+02
  1890.500   3.39013757e+02
  1891.000   3.37922637e+02
  1891.500   3.36837366e+02
  1892.000   3.35757902e+02
  1892.500   3.34684202e+02
  1893.000   3.33616223e+02
  1893.500   3.32553924e+02
  1894.000   3.31497263e+02
  1894.500   3.30446199e+02
  1895.000   3.29400692e+02
  1895.500   3.28360700e+02
  1896.000   3.27326184e+02
  1896.500   3.26297105e+02
  1897.000   3.25273422e+02
  1897.500   3.24255098e+02
  1898.000   3.23242093e+02
  1898.500   3.22234370e+02
  1899.000   3.21231889e+02
  1899.500   3.20234615e+02
  1900.000   3.19242510e+02
  1900.500   3.18255536e+02
  1901.000   3.17273658e+02
  1901.500   3.16296839e+02
  1902.000   3.15325044e+02
  1902.500   3.14358236e+02
  1903.000   3.13396381e+02
  1903.500   3.12439444e+02
  1904.000   3.11487389e+02
  1904.500   3.10540184e+02
  1905.000   3.09597793e+02
  1905.500   3.08660184e+02
  1906.000   3.07727322e+02
  1906.500   3.06799175e+02
  1907.000   3.05875710e+02
  1907.500   3.04956894e+02
  1908.000   3.04042696e+02
  1908.500   3.03133082e+02
  1909.000   3.02228023e+02
  1909.500   3.01327485e+02
  1910.000   3.00431439e+02
  1910.500   2.99539853e+02
  1911.000   2.98652696e+02
  1911.500   2.97769939e+02
  1912.000   2.96891551e+02
  1912.500   2.96017503e+02
  1913.000   2.95147765e+02
  1913.500   2.94282307e+02
  1914.000   2.93421102e+02
  1914.500   2.92564119e+02
  1915.000   2.91711331e+02
  1915.500   2.90862708e+02
  1916.000   2.90018224e+02
  1916.500   2.89177851e+02
  1917.000   2.88341560e+02
  1917.500   2.87509324e+02
  1918.000   2.86681117e+02
  1918.500   2.85856911e+02
  1919.000   2.85036680e+02
  1919.500   2.84220398e+02
  1920.000   2.83408037e+02
  1920.500   2.82599573e+02
  1921.000   2.81794979e+02
  1921.500   2.80994231e+02
  1922.000   2.80197302e+02
  1922.500   2.79404167e+02
  1923.000   2.78614802e+02
  1923.500   2.77829182e+02
  1924.000   2.77047282e+02
  1924.500   2.76269078e+02
  1925.000   2.75494546e+02
  1925.500   2.74723663e+02
  1926.000   2.73956404e+02
  1926.500   2.73192745e+02
  1927.000   2.72432665e+02
  1927.500   2.71676138e+02
  1928.000   2.70923144e+02
  1928.500   2.70173658e+02
  1929.000   2.69427658e+02
  1929.500   2.68685123e+02
  1930.000   2.67946029e+02
  1930.500   2.67210355e+02
  1931.000   2.66478078e+02
  1931.500   2.65749178e+02
  1932.000   2.65023633e+02
  1932.500   2.64301421e+02
  1933.000   2.63582521e+02
  1933.500   2.62866913e+02
  1934.000   2.62154575e+02
  1934.500   2.61445487e+02
  1935.000   2.60739628e+02
  1935.500   2.60036979e+02
  1936.000   2.59337519e+02
  1936.500   2.58641227e+02
  1937.000   2.57948085e+02
  1937.500   2.57258073e+02
  1938.000   2.56571170e+02
  1938.500   2.55887358e+02
  1939.000   2.55206618e+02
  1939.500   2.54528930e+02
  1940.000   2.53854276e+02
  1940.500   2.53182636e+02
  1941.000   2.52513993e+02
  1941.500   2.51848327e+02
  1942.000   2.51185621e+02
  1942.500   2.50525856e+02
  1943.000   2.49869014e+02
  1943.500   2.49215077e+02
  1944.000   2.48564028e+02
  1944.500   2.47915849e+02
  1945.000   2.47270523e+02
  1945.500   2.46628032e+02
  1946.000   2.45988358e+02
  1946.500   2.45351485e+02
  1947.000   2.44717397e+02
  1947.500   2.44086075e+02
  1948.000   2.43457504e+02
  1948.500   2.42831667e+02
  1949.000   2.42208547e+02
  1949.500   2.41588128e+02
  1950.000   2.40970394e+02
  1950.500   2.40355329e+02
  1951.000   2.39742917e+02
  1951.500   2.39133142e+02
  1952.000   2.38525988e+02
  1952.500   2.37921441e+02
  1953.000   2.37319483e+02
  1953.500   2.36720101e+02
  1954.000   2.36123279e+02
  1954.500   2.35529001e+02
  1955.000   2.34937253e+02
  1955.500   2.34348019e+02
  1956.000   2.33761286e+02
  1956.500   2.33177038e+02
  1957.000   2.32595261e+02
  1957.500   2.32015941e+02
  1958.000   2.31439062e+02
  1958.500   2.30864611e+02
  1959.000   2.30292574e+02
  1959.500   2.29722936e+02
  1960.000   2.29155684e+02
  1960.500   2.28590804e+02
  1961.000   2.28028282e+02
  1961.500   2.27468105e+02
  1962.000   2.26910259e+02
  1962.500   2.26354730e+02
  1963.000   2.25801506e+02
  1963.500   2.25250572e+02
  1964.000   2.24701917e+02
  1964.500   2.24155526e+02
  1965.000   2.23611388e+02
  1965.500   2.23069488e+02
  1966.000   2.22529815e+02
  1966.500   2.21992356e+02
  1967.000   2.21457098e+02
  1967.500   2.20924028e+02
  1968.000   2.20393135e+02
  1968.500   2.19864406e+02
  1969.000   2.19337829e+02
  1969.500   2.18813391e+02
  1970.000   2.18291081e+02
  1970.500   2.17770886e+02
  1971.000   2.17252796e+02
  1971.500   2.16736797e+02
  1972.000   2.16222879e+02
  1972.500   2.15711029e+02
  1973.000   2.15201237e+02
  1973.500   2.14693490e+02
  1974.000   2.14187778e+02
  1974.500   2.13684089e+02
  1975.000   2.13182412e+02
  1975.500   2.12682735e+02
  1976.000   2.12185049e+02
  1976.500   2.11689341e+02
  1977.000   2.11195601e+02
  1977.500   2.10703818e+02
  1978.000   2.10213981e+02
  1978.500   2.09726080e+02
  1979.000   2.09240104e+02
  1979.500   2.08756042e+02
  1980.000   2.08273884e+02
  1980.500   2.07793621e+02
  1981.000   2.07315240e+02
  1981.500   2.06838733e+02
  1982.000   2.06364088e+02
  1982.500   2.05891297e+02
  1983.000   2.05420348e+02
  1983.500   2.04951233e+02
  1984.000   2.04483940e+02
  1984.500   2.04018461e+02
  1985.000   2.03554785e+02
  1985.500   2.03092903e+02
  1986.000   2.02632805e+02
  1986.500   2.02174481e+02
  1987.000   2.01717923e+02
  1987.500   2.01263121e+02
  1988.000   2.00810065e+02
  1988.500   2.00358746e+02
  1989.000   1.99909154e+02
  1989.500   1.99461282e+02
  1990.000   1.99015119e+02
  1990.500   1.98570656e+02
  1991.000   1.98127885e+02
  1991.500   1.97686797e+02
  1992.000   1.97247383e+02
  1992.500   1.96809633e+02
  1993.000   1.96373540e+02
  1993.500   1.95939094e+02
  1994.000   1.95506287e+02
  1994.500   1.95075110e+02
  1995.000   1.94645555e+02
  1995.500   1.94217613e+02
  1996.000   1.93791276e+02
  1996.500   1.93366536e+02
  1997.000   1.92943385e+02
  1997.500   1.92521813e+02
  1998.000   1.92101813e+02
  1998.500   1.91683377e+02
  1999.000   1.91266496e+02
  1999.500   1.90851163e+02
  2000.000   1.90437370e+02
  2000.500   1.90025109e+02
  2001.000   1.89614371e+02
  2001.500   1.89205150e+02
  2002.000   1.88797437e+02
  2002.500   1.88391224e+02
  2003.000   1.87986505e+02
  2003.500   1.87583271e+02
  2004.000   1.87181514e+02
  2004.500   1.86781228e+02
  2005.000   1.86382405e+02
  2005.500   1.85985037e+02
  2006.000   1.85589117e+02
  2006.500   1.85194638e+02
  2007.000   1.84801592e+02
  2007.500   1.84409972e+02
  2008.000   1.84019771e+02
  2008.500   1.83630983e+02
  2009.000   1.83243599e+02
  2009.500   1.82857612e+02
  2010.000   1.82473017e+02
  2010.500   1.82089805e+02
  2011.000   1.81707970e+02
  2011.500   1.81327505e+02
  2012.000   1.80948404e+02
  2012.500   1.80570658e+02
  2013.000   1.80194263e+02
  2013.500   1.79819210e+02
  2014.000   1.79445494e+02
  2014.500   1.79073107e+02
  2015.000   1.78702044e+02
  2015.500   1.78332297e+02
  2016.000   1.77963860e+02
  2016.500   1.77596727e+02
  2017.000   1.77230892e+02
  2017.500   1.76866347e+02
  2018.000   1.76503087e+02
  2018.500   1.76141105e+02
  2019.000   1.75780395e+02
  2019.500   1.75420951e+02
  2020.000   1.75062767e+02
  2020.500   1.74705837e+02
  2021.000   1.74350153e+02
  2021.500   1.73995712e+02
  2022.000   1.73642505e+02
  2022.500   1.73290528e+02
  2023.000   1.72939775e+02
  2023.500   1.72590239e+02
  2024.000   1.72241915e+02
  2024.500   1.71894797e+02
  2025.000   1.71548878e+02
  2025.500   1.71204154e+02
  2026.000   1.70860619e+02
  2026.500   1.70518267e+02
  2027.000   1.70177091e+02
  2027.500   1.69837088e+02
  2028.000   1.69498250e+02
  2028.500   1.69160573e+02
  2029.000   1.68824051e+02
  2029.500   1.68488678e+02
  2030.000   1.68154449e+02
  2030.500   1.67821359e+02
  2031.000   1.67489402e+02
  2031.500   1.67158573e+02
  2032.000   1.66828866e+02
  2032.500   1.66500277e+02
  2033.000   1.66172800e+02
  2033.500   1.65846429e+02
  2034.000   1.65521160e+02
  2034.500   1.65196987e+02
  2035.000   1.64873905e+02
  2035.500   1.64551910e+02
  2036.000   1.64230995e+02
  2036.500   1.63911157e+02
  2037.000   1.63592390e+02
  2037.500   1.63274688e+02
  2038.000   1.62958048e+02
  2038.500   1.62642464e+02
  2039.000   1.62327931e+02
  2039.500   1.62014444e+02
  2040.000   1.61701999e+02
  2040.500   1.61390591e+02
  2041.000   1.61080214e+02
  2041.500   1.60770865e+02
  2042.000   1.60462538e+02
  2042.500   1.60155229e+02
  2043.000   1.59848934e+02
  2043.500   1.59543646e+02
  2044.000   1.59239363e+02
  2044.500   1.58936078e+02
  2045.000   1.58633789e+02
  2045.500   1.58332489e+02
  2046.000   1.58032175e+02
  2046.500   1.57732842e+02
  2047.000   1.57434486e+02
  2047.500   1.57137103e+02
  2048.000   1.56840687e+02
  2048.500   1.56545234e+02
  2049.000   1.56250741e+02
  2049.500   1.55957203e+02
  2050.000   1.55664615e+02
  2050.500   1.55372973e+02
  2051.000   1.55082273e+02
  2051.500   1.54792511e+02
  2052.000   1.54503683e+02
  2052.500   1.54215784e+02
  2053.000   1.53928810e+02
  2053.500   1.53642757e+02
  2054.000   1.53357621e+02
  2054.500   1.53073398e+02
  2055.000   1.52790083e+02
  2055.500   1.52507674e+02
  2056.000   1.52226165e+02
  2056.500   1.51945553e+02
  2057.000   1.51665833e+02
  2057.500   1.51387003e+02
  2058.000   1.51109057e+02
  2058.500   1.50831992e+02
  2059.000   1.50555805e+02
  2059.500   1.50280491e+02
  2060.000   1.50006046e+02
  2060.500   1.49732466e+02
  2061.000   1.49459748e+02
  2061.500   1.49187889e+02
  2062.000   1.48916883e+02
  2062.500   1.48646729e+02
  2063.000   1.48377420e+02
  2063.500   1.48108955e+02
  2064.000   1.47841330e+02
  2064.500   1.47574540e+02
  2065.000   1.47308582e+02
  2065.500   1.47043453e+02
  2066.000   1.46779149e+02
  2066.500   1.46515666e+02
  2067.000   1.46253001e+02
  2067.500   1.45991151e+02
  2068.000   1.45730111e+02
  2068.500   1.45469878e+02
  2069.000   1.45210449e+02
  2069.500   1.44951821e+02
  2070.000   1.44693989e+02
  2070.500   1.44436951e+02
  2071.000   1.44180703e+02
  2071.500   1.43925242e+02
  2072.000   1.43670564e+02
  2072.500   1.43416667e+02
  2073.000   1.43163546e+02
  2073.500   1.42911198e+02
  2074.000   1.42659620e+02
  2074.500   1.42408809e+02
  2075.000   1.42158762e+02
  2075.500   1.41909475e+02
  2076.000   1.41660946e+02
  2076.500   1.41413170e+02
  2077.000   1.41166145e+02
  2077.500   1.40919867e+02
  2078.000   1.40674334e+02
  2078.500   1.40429542e+02
  2079.000   1.40185489e+02
  2079.500   1.39942170e+02
  2080.000   1.39699584e+02
  2080.500   1.39457726e+02
  2081.000   1.39216595e+02
  2081.500   1.38976186e+02
  2082.000   1.38736497e+02
  2082.500   1.38497525e+02
  2083.000   1.38259266e+02
  2083.500   1.38021719e+02
  2084.000   1.37784880e+02
  2084.500   1.37548745e+02
  2085.000   1.37313313e+02
  2085.500   1.37078579e+02
  2086.000   1.36844542e+02
  2086.500   1.36611199e+02
  2087.000   1.36378546e+02
  2087.500   1.36146581e+02
  2088.000   1.35915300e+02
  2088.500   1.35684702e+02
  2089.000   1.35454783e+02
  2089.500   1.35225540e+02
  2090.000   1.34996971e+02
  2090.500   1.34769073e+02
  2091.000   1.34541843e+02
  2091.500   1.34315279e+02
  2092.000   1.34089377e+02
  2092.500   1.33864136e+02
  2093.000   1.33639551e+02
  2093.500   1.33415622e+02
  2094.000   1.33192344e+02
  2094.500   1.32969716e+02
  2095.000   1.32747735e+02
  2095.500   1.32526398e+02
  2096.000   1.32305702e+02
  2096.500   1.32085646e+02
  2097.000   1.31866226e+02
  2097.500   1.31647439e+02
  2098.000   1.31429284e+02
  2098.500   1.31211758e+02
  2099.000   1.30994858e+02
  2099.500   1.30778581e+02
  2100.000   1.30562926e+02
  2100.500   1.30347889e+02
  2101.000   1.30133469e+02
  2101.500   1.29919663e+02
  2102.000   1.29706467e+02
  2102.500   1.29493881e+02
  2103.000   1.29281901e+02
  2103.500   1.29070526e+02
  2104.000   1.28859752e+02
  2104.500   1.28649577e+02
  2105.000   1.28439999e+02
  2105.500   1.28231016e+02
  2106.000   1.28022625e+02
  2106.500   1.27814824e+02
  2107.000   1.27607610e+02
  2107.500   1.27400982e+02
  2108.000   1.27194937e+02
  2108.500   1.26989472e+02
  2109.000   1.26784585e+02
  2109.500   1.26580275e+02
  2110.000   1.26376539e+02
  2110.500   1.26173374e+02
  2111.000   1.25970778e+02
  2111.500   1.25768750e+02
  2112.000   1.25567286e+02
  2112.500   1.25366386e+02
  2113.000   1.25166046e+02
  2113.500   1.24966264e+02
  2114.000   1.24767038e+02
  2114.500   1.24568367e+02
  2115.000   1.24370247e+02
  2115.500   1.24172677e+02
  2116.000   1.23975655e+02
  2116.500   1.23779178e+02
  2117.000   1.23583245e+02
  2117.500   1.23387853e+02
  2118.000   1.23193000e+02
  2118.500   1.22998684e+02
  2119.000   1.22804904e+02
  2119.500   1.22611656e+02
  2120.000   1.22418940e+02
  2120.500   1.22226752e+02
  2121.000   1.22035092e+02
  2121.500   1.21843956e+02
  2122.000   1.21653343e+02
  2122.500   1.21463252e+02
  2123.000   1.21273679e+02
  2123.500   1.21084623e+02
  2124.000   1.20896082e+02
  2124.500   1.20708055e+02
  2125.000   1.20520538e+02
  2125.500   1.20333531e+02
  2126.000   1.20147031e+02
  2126.500   1.19961036e+02
  2127.000   1.19775545e+02
  2127.500   1.19590555e+02
  2128.000   1.19406065e+02
  2128.500   1.19222072e+02
  2129.000   1.19038576e+02
  2129.500   1.18855574e+02
  2130.000   1.18673063e+02
  2130.500   1.18491043e+02
  2131.000   1.18309512e+02
  2131.500   1.18128467e+02
  2132.000   1.17947908e+02
  2132.500   1.17767831e+02
  2133.000   1.17588235e+02
  2133.500   1.17409119e+02
  2134.000   1.17230481e+02
  2134.500   1.17052318e+02
  2135.000   1.16874630e+02
  2135.500   1.16697414e+02
  2136.000   1.16520669e+02
  2136.500   1.16344393e+02
  2137.000   1.16168583e+02
  2137.500   1.15993239e+02
  2138.000   1.15818359e+02
  2138.500   1.15643941e+02
  2139.000   1.15469984e+02
  2139.500   1.15296484e+02
  2140.000   1.15123442e+02
  2140.500   1.14950855e+02
  2141.000   1.14778722e+02
  2141.500   1.14607040e+02
  2142.000   1.14435809e+02
  2142.500   1.14265027e+02
  2143.000   1.14094691e+02
  2143.500   1.13924801e+02
  2144.000   1.13755355e+02
  2144.500   1.13586350e+02
  2145.000   1.13417786e+02
  2145.500   1.13249662e+02
  2146.000   1.13081974e+02
  2146.500   1.12914722e+02
  2147.000   1.12747905e+02
  2147.500   1.12581520e+02
  2148.000   1.12415566e+02
  2148.500   1.12250041e+02
  2149.000   1.12084945e+02
  2149.500   1.11920274e+02
  2150.000   1.11756029e+02
  2150.500   1.11592207e+02
  2151.000   1.11428807e+02
  2151.500   1.11265827e+02
  2152.000   1.11103266e+02
  2152.500   1.10941122e+02
  2153.000   1.10779394e+02
  2153.500   1.10618080e+02
  2154.000   1.10457180e+02
  2154.500   1.10296690e+02
  2155.000   1.10136611e+02
  2155.500   1.09976939e+02
  2156.000   1.09817675e+02
  2156.500   1.09658817e+02
  2157.000   1.09500362e+02
  2157.500   1.09342310e+02
  2158.000   1.09184660e+02
  2158.500   1.09027409e+02
  2159.000   1.08870557e+02
  2159.500   1.08714102e+02
  2160.000   1.08558042e+02
  2160.500   1.08402377e+02
  2161.000   1.08247104e+02
  2161.500   1.08092223e+02
  2162.000   1.07937732e+02
  2162.500   1.07783629e+02
  2163.000   1.07629914e+02
  2163.500   1.07476585e+02
  2164.000   1.07323641e+02
  2164.500   1.07171080e+02
  2165.000   1.07018901e+02
  2165.500   1.06867103e+02
  2166.000   1.06715683e+02
  2166.500   1.06564642e+02
  2167.000   1.06413978e+02
  2167.500   1.06263689e+02
  2168.000   1.06113774e+02
  2168.500   1.05964231e+02
  2169.000   1.05815061e+02
  2169.500   1.05666260e+02
  2170.000   1.05517828e+02
  2170.500   1.05369764e+02
  2171.000   1.05222066e+02
  2171.500   1.05074734e+02
  2172.000   1.04927765e+02
  2172.500   1.04781159e+02
  2173.000   1.04634914e+02
  2173.500   1.04489030e+02
  2174.000   1.04343504e+02
  2174.500   1.04198336e+02
  2175.000   1.04053524e+02
  2175.500   1.03909068e+02
  2176.000   1.03764965e+02
  2176.500   1.03621215e+02
  2177.000   1.03477817e+02
  2177.500   1.03334770e+02
  2178.000   1.03192071e+02
  2178.500   1.03049721e+02
  2179.000   1.02907717e+02
  2179.500   1.02766059e+02
  2180.000   1.02624745e+02
  2180.500   1.02483775e+02
  2181.000   1.02343147e+02
  2181.500   1.02202860e+02
  2182.000   1.02062913e+02
  2182.500   1.01923304e+02
  2183.000   1.01784033e+02
  2183.500   1.01645099e+02
  2184.000   1.01506500e+02
  2184.500   1.01368235e+02
  2185.000   1.01230303e+02
  2185.500   1.01092703e+02
  2186.000   1.00955433e+02
  2186.500   1.00818494e+02
  2187.000   1.00681883e+02
  2187.500   1.00545599e+02
  2188.000   1.00409642e+02
  2188.500   1.00274011e+02
  2189.000   1.00138703e+02
  2189.500   1.00003719e+02
  2190.000   9.98690570e+01
  2190.500   9.97347159e+01
  2191.000   9.96006947e+01
  2191.500   9.94669925e+01
  2192.000   9.93336081e+01
  2192.500   9.92005405e+01
  2193.000   9.90677887e+01
  2193.500   9.89353515e+01
  2194.000   9.88032280e+01
  2194.500   9.86714172e+01
  2195.000   9.85399180e+01
  2195.500   9.84087293e+01
  2196.000   9.82778502e+01
  2196.500   9.81472797e+01
  2197.000   9.80170167e+01
  2197.500   9.78870602e+01
  2198.000   9.77574092e+01
  2198.500   9.76280628e+01
  2199.000   9.74990199e+01
  2199.500   9.73702795e+01
  2200.000   9.72418407e+01
  2200.500   9.71137024e+01
  2201.000   9.69858638e+01
  2201.500   9.68583237e+01
  2202.000   9.67310813e+01
  2202.500   9.66041356e+01
  2203.000   9.64774856e+01
  2203.500   9.63511304e+01
  2204.000   9.62250690e+01
  2204.500   9.60993004e+01
  2205.000   9.59738237e+01
  2205.500   9.58486381e+01
  2206.000   9.57237424e+01
  2206.500   9.55991358e+01
  2207.000   9.54748175e+01
  2207.500   9.53507863e+01
  2208.000   9.52270415e+01
  2208.500   9.51035820e+01
  2209.000   9.49804071e+01
  2209.500   9.48575157e+01
  2210.000   9.47349070e+01
  2210.500   9.46125800e+01
  2211.000   9.44905339e+01
  2211.500   9.43687678e+01
  2212.000   9.42472808e+01
  2212.500   9.41260719e+01
  2213.000   9.40051403e+01
  2213.500   9.38844852e+01
  2214.000   9.37641055e+01
  2214.500   9.36440006e+01
  2215.000   9.35241694e+01
  2215.500   9.34046112e+01
  2216.000   9.32853250e+01
  2216.500   9.31663101e+01
  2217.000   9.30475654e+01
  2217.500   9.29290903e+01
  2218.000   9.28108838e+01
  2218.500   9.26929452e+01
  2219.000   9.25752734e+01
  2219.500   9.24578678e+01
  2220.000   9.23407275e+01
  2220.500   9.22238516e+01
  2221.000   9.21072393e+01
  2221.500   9.19908898e+01
  2222.000   9.18748023e+01
  2222.500   9.17589759e+01
  2223.000   9.16434099e+01
  2223.500   9.15281034e+01
  2224.000   9.14130556e+01
  2224.500   9.12982657e+01
  2225.000   9.11837329e+01
  2225.500   9.10694564e+01
  2226.000   9.09554354e+01
  2226.500   9.08416691e+01
  2227.000   9.07281568e+01
  2227.500   9.06148976e+01
  2228.000   9.05018907e+01
  2228.500   9.03891354e+01
  2229.000   9.02766309e+01
  2229.500   9.01643765e+01
  2230.000   9.00523712e+01
  2230.500   8.99406145e+01
  2231.000   8.98291055e+01
  2231.500   8.97178434e+01
  2232.000   8.96068275e+01
  2232.500   8.94960571e+01
  2233.000   8.93855314e+01
  2233.500   8.92752496e+01
  2234.000   8.91652109e+01
  2234.500   8.90554148e+01
  2235.000   8.89458603e+01
  2235.500   8.88365468e+01
  2236.000   8.87274735e+01
  2236.500   8.86186397e+01
  2237.000   8.85100447e+01
  2237.500   8.84016878e+01
  2238.000   8.82935681e+01
  2238.500   8.81856851e+01
  2239.000   8.80780379e+01
  2239.500   8.79706259e+01
  2240.000   8.78634484e+01
  2240.500   8.77565046e+01
  2241.000   8.76497938e+01
  2241.500   8.75433154e+01
  2242.000   8.74370686e+01
  2242.500   8.73310527e+01
  2243.000   8.72252671e+01
  2243.500   8.71197110e+01
  2244.000   8.70143837e+01
  2244.500   8.69092846e+01
  2245.000   8.68044130e+01
  2245.500   8.66997682e+01
  2246.000   8.65953496e+01
  2246.500   8.64911563e+01
  2247.000   8.63871878e+01
  2247.500   8.62834435e+01
  2248.000   8.61799225e+01
  2248.500   8.60766243e+01
  2249.000   8.59735482e+01
  2249.500   8.58706935e+01
  2250.000   8.57680596e+01
  2250.500   8.56656458e+01
  2251.000   8.55634515e+01
  2251.500   8.54614760e+01
  2252.000   8.53597187e+01
  2252.500   8.52581788e+01
  2253.000   8.51568559e+01
  2253.500   8.50557492e+01
  2254.000   8.49548580e+01
  2254.500   8.48541818e+01
  2255.000   8.47537200e+01
  2255.500   8.46534718e+01
  2256.000   8.45534367e+01
  2256.500   8.44536141e+01
  2257.000   8.43540032e+01
  2257.500   8.42546035e+01
  2258.000   8.41554144e+01
  2258.500   8.40564353e+01
  2259.000   8.39576655e+01
  2259.500   8.38591044e+01
  2260.000   8.37607514e+01
  2260.500   8.36626059e+01
  2261.000   8.35646674e+01
  2261.500   8.34669351e+01
  2262.000   8.33694085e+01
  2262.500   8.32720870e+01
  2263.000   8.31749700e+01
  2263.500   8.30780569e+01
  2264.000   8.29813472e+01
  2264.500   8.28848401e+01
  2265.000   8.27885352e+01
  2265.500   8.26924318e+01
  2266.000   8.25965295e+01
  2266.500   8.25008275e+01
  2267.000   8.24053253e+01
  2267.500   8.23100223e+01
  2268.000   8.22149180e+01
  2268.500   8.21200117e+01
  2269.000   8.20253030e+01
  2269.500   8.19307913e+01
  2270.000   8.18364759e+01
  2270.500   8.17423563e+01
  2271.000   8.16484320e+01
  2271.500   8.15547024e+01
  2272.000   8.14611669e+01
  2272.500   8.13678250e+01
  2273.000   8.12746761e+01
  2273.500   8.11817197e+01
  2274.000   8.10889553e+01
  2274.500   8.09963822e+01
  2275.000   8.09039999e+01
  2275.500   8.08118080e+01
  2276.000   8.07198058e+01
  2276.500   8.06279928e+01
  2277.000   8.05363685e+01
  2277.500   8.04449323e+01
  2278.000   8.03536837e+01
  2278.500   8.02626223e+01
  2279.000   8.01717473e+01
  2279.500   8.00810584e+01
  2280.000   7.99905550e+01
  2280.500   7.99002365e+01
  2281.000   7.98101025e+01
  2281.500   7.97201524e+01
  2282.000   7.96303858e+01
  2282.500   7.95408020e+01
  2283.000   7.94514006e+01
  2283.500   7.93621811e+01
  2284.000   7.92731429e+01
  2284.500   7.91842856e+01
  2285.000   7.90956087e+01
  2285.500   7.90071116e+01
  2286.000   7.89187938e+01
  2286.500   7.88306549e+01
  2287.000   7.87426943e+01
  2287.500   7.86549115e+01
  2288.000   7.85673061e+01
  2288.500   7.84798776e+01
  2289.000   7.83926254e+01
  2289.500   7.83055490e+01
  2290.000   7.82186481e+01
  2290.500   7.81319221e+01
  2291.000   7.80453704e+01
  2291.500   7.79589927e+01
  2292.000   7.78727885e+01
  2292.500   7.77867572e+01
  2293.000   7.77008984e+01
  2293.500   7.76152116e+01
  2294.000   7.75296964e+01
  2294.500   7.74443522e+01
  2295.000   7.73591786e+01
  2295.500   7.72741752e+01
  2296.000   7.71893414e+01
  2296.500   7.71046768e+01
  2297.000   7.70201810e+01
  2297.500   7.69358534e+01
  2298.000   7.68516936e+01
  2298.500   7.67677012e+01
  2299.000   7.66838756e+01
  2299.500   7.66002165e+01
  2300.000   7.65167234e+01
  2300.500   7.64333958e+01
  2301.000   7.63502333e+01
  2301.500   7.62672354e+01
  2302.000   7.61844017e+01
  2302.500   7.61017317e+01
  2303.000   7.60192250e+01
  2303.500   7.59368811e+01
  2304.000   7.58546997e+01
  2304.500   7.57726802e+01
  2305.000   7.56908223e+01
  2305.500   7.56091254e+01
  2306.000   7.55275892e+01
  2306.500   7.54462133e+01
  2307.000   7.53649971e+01
  2307.500   7.52839402e+01
  2308.000   7.52030423e+01
  2308.500   7.51223029e+01
  2309.000   7.50417216e+01
  2309.500   7.49612979e+01
  2310.000   7.48810315e+01
  2310.500   7.48009219e+01
  2311.000   7.47209686e+01
  2311.500   7.46411713e+01
  2312.000   7.45615296e+01
  2312.500   7.44820430e+01
  2313.000   7.44027112e+01
  2313.500   7.43235336e+01
  2314.000   7.42445099e+01
  2314.500   7.41656398e+01
  2315.000   7.40869227e+01
  2315.500   7.40083582e+01
  2316.000   7.39299461e+01
  2316.500   7.38516858e+01
  2317.000   7.37735770e+01
  2317.500   7.36956192e+01
  2318.000   7.36178121e+01
  2318.500   7.35401552e+01
  2319.000   7.34626483e+01
  2319.500   7.33852907e+01
  2320.000   7.33080823e+01
  2320.500   7.32310225e+01
  2321.000   7.31541111e+01
  2321.500   7.30773475e+01
  2322.000   7.30007314e+01
  2322.500   7.29242625e+01
  2323.000   7.28479403e+01
  2323.500   7.27717644e+01
  2324.000   7.26957345e+01
  2324.500   7.26198502e+01
  2325.000   7.25441111e+01
  2325.500   7.24685169e+01
  2326.000   7.23930670e+01
  2326.500   7.23177613e+01
  2327.000   7.22425992e+01
  2327.500   7.21675805e+01
  2328.000   7.20927047e+01
  2328.500   7.20179715e+01
  2329.000   7.19433805e+01
  2329.500   7.18689313e+01
  2330.000   7.17946236e+01
  2330.500   7.17204570e+01
  2331.000   7.16464311e+01
  2331.500   7.15725456e+01
  2332.000   7.14988001e+01
  2332.500   7.14251943e+01
  2333.000   7.13517277e+01
  2333.500   7.12784001e+01
  2334.000   7.12052110e+01
  2334.500   7.11321602e+01
  2335.000   7.10592472e+01
  2335.500   7.09864717e+01
  2336.000   7.09138333e+01
  2336.500   7.08413318e+01
  2337.000   7.07689667e+01
  2337.500   7.06967377e+01
  2338.000   7.06246444e+01
  2338.500   7.05526866e+01
  2339.000   7.04808638e+01
  2339.500   7.04091757e+01
  2340.000   7.03376220e+01
  2340.500   7.02662023e+01
  2341.000   7.01949163e+01
  2341.500   7.01237636e+01
  2342.000   7.00527440e+01
  2342.500   6.99818570e+01
  2343.000   6.99111023e+01
  2343.500   6.98404796e+01
  2344.000   6.97699886e+01
  2344.500   6.96996290e+01
  2345.000   6.96294003e+01
  2345.500   6.95593022e+01
  2346.000   6.94893345e+01
  2346.500   6.94194969e+01
  2347.000   6.93497888e+01
  2347.500   6.92802102e+01
  2348.000   6.92107605e+01
  2348.500   6.91414396e+01
  2349.000   6.90722470e+01
  2349.500   6.90031825e+01
  2350.000   6.89342457e+01
  2350.500   6.88654364e+01
  2351.000   6.87967541e+01
  2351.500   6.87281986e+01
  2352.000   6.86597696e+01
  2352.500   6.85914667e+01
  2353.000   6.85232896e+01
  2353.500   6.84552381e+01
  2354.000   6.83873117e+01
  2354.500   6.83195103e+01
  2355.000   6.82518334e+01
  2355.500   6.81842808e+01
  2356.000   6.81168521e+01
  2356.500   6.80495471e+01
  2357.000   6.79823655e+01
  2357.500   6.79153069e+01
  2358.000   6.78483710e+01
  2358.500   6.77815575e+01
  2359.000   6.77148662e+01
  2359.500   6.76482968e+01
  2360.000   6.75818488e+01
  2360.500   6.75155221e+01
  2361.000   6.74493163e+01
  2361.500   6.73832311e+01
  2362.000   6.73172663e+01
  2362.500   6.72514215e+01
  2363.000   6.71856965e+01
  2363.500   6.71200909e+01
  2364.000   6.70546045e+01
  2364.500   6.69892370e+01
  2365.000   6.69239880e+01
  2365.500   6.68588573e+01
  2366.000   6.67938446e+01
  2366.500   6.67289496e+01
  2367.000   6.66641721e+01
  2367.500   6.65995117e+01
  2368.000   6.65349681e+01
  2368.500   6.64705411e+01
  2369.000   6.64062304e+01
  2369.500   6.63420357e+01
  2370.000   6.62779568e+01
  2370.500   6.62139932e+01
  2371.000   6.61501449e+01
  2371.500   6.60864114e+01
  2372.000   6.60227925e+01
  2372.500   6.59592880e+01
  2373.000   6.58958975e+01
  2373.500   6.58326207e+01
  2374.000   6.57694575e+01
  2374.500   6.57064076e+01
  2375.000   6.56434705e+01
  2375.500   6.55806462e+01
  2376.000   6.55179343e+01
  2376.500   6.54553345e+01
  2377.000   6.53928466e+01
  2377.500   6.53304704e+01
  2378.000   6.52682054e+01
  2378.500   6.52060516e+01
  2379.000   6.51440085e+01
  2379.500   6.50820760e+01
  2380.000   6.50202538e+01
  2380.500   6.49585416e+01
  2381.000   6.48969392e+01
  2381.500   6.48354463e+01
  2382.000   6.47740626e+01
  2382.500   6.47127879e+01
  2383.000   6.46516219e+01
  2383.500   6.45905644e+01
  2384.000   6.45296151e+01
  2384.500   6.44687737e+01
  2385.000   6.44080401e+01
  2385.500   6.43474138e+01
  2386.000   6.42868948e+01
  2386.500   6.42264827e+01
  2387.000   6.41661773e+01
  2387.500   6.41059783e+01
  2388.000   6.40458855e+01
  2388.500   6.39858986e+01
  2389.000   6.39260174e+01
  2389.500   6.38662417e+01
  2390.000   6.38065711e+01
  2390.500   6.37470055e+01
  2391.000   6.36875445e+01
  2391.500   6.36281881e+01
  2392.000   6.35689358e+01
  2392.500   6.35097875e+01
  2393.000   6.34507429e+01
  2393.500   6.33918018e+01
  2394.000   6.33329640e+01
  2394.500   6.32742291e+01
  2395.000   6.32155970e+01
  2395.500   6.31570674e+01
  2396.000   6.30986401e+01
  2396.500   6.30403149e+01
  2397.000   6.29820915e+01
  2397.500   6.29239696e+01
  2398.000   6.28659491e+01
  2398.500   6.28080297e+01
  2399.000   6.27502111e+01
  2399.500   6.26924933e+01
  2400.000   6.26348758e+01
  2400.500   6.25773585e+01
  2401.000   6.25199411e+01
  2401.500   6.24626235e+01
  2402.000   6.24054053e+01
  2402.500   6.23482864e+01
  2403.000   6.22912666e+01
  2403.500   6.22343455e+01
  2404.000   6.21775231e+01
  2404.500   6.21207989e+01
  2405.000   6.20641730e+01
  2405.500   6.20076449e+01
  2406.000   6.19512145e+01
  2406.500   6.18948816e+01
  2407.000   6.18386459e+01
  2407.500   6.17825072e+01
  2408.000   6.17264654e+01
  2408.500   6.16705201e+01
  2409.000   6.16146712e+01
  2409.500   6.15589184e+01
  2410.000   6.15032615e+01
  2410.500   6.14477004e+01
  2411.000   6.13922347e+01
  2411.500   6.13368643e+01
  2412.000   6.12815890e+01
  2412.500   6.12264085e+01
  2413.000   6.11713227e+01
  2413.500   6.11163313e+01
  2414.000   6.10614340e+01
  2414.500   6.10066308e+01
  2415.000   6.09519214e+01
  2415.500   6.08973055e+01
  2416.000   6.08427831e+01
  2416.500   6.07883537e+01
  2417.000   6.07340174e+01
  2417.500   6.06797737e+01
  2418.000   6.06256226e+01
  2418.500   6.05715638e+01
  2419.000   6.05175972e+01
  2419.500   6.04637225e+01
  2420.000   6.04099394e+01
  2420.500   6.03562479e+01
  2421.000   6.03026477e+01
  2421.500   6.02491386e+01
  2422.000   6.01957205e+01
  2422.500   6.01423930e+01
  2423.000   6.00891560e+01
  2423.500   6.00360093e+01
  2424.000   5.99829527e+01
  2424.500   5.99299860e+01
  2425.000   5.98771091e+01
  2425.500   5.98243216e+01
  2426.000   5.97716234e+01
  2426.500   5.97190144e+01
  2427.000   5.96664943e+01
  2427.500   5.96140629e+01
  2428.000   5.95617200e+01
  2428.500   5.95094655e+01
  2429.000   5.94572991e+01
  2429.500   5.94052207e+01
  2430.000   5.93532300e+01
  2430.500   5.93013269e+01
  2431.000   5.92495112e+01
  2431.500   5.91977827e+01
  2432.000   5.91461411e+01
  2432.500   5.90945864e+01
  2433.000   5.90431183e+01
  2433.500   5.89917366e+01
  2434.000   5.89404412e+01
  2434.500   5.88892318e+01
  2435.000   5.88381083e+01
  2435.500   5.87870705e+01
  2436.000   5.87361182e+01
  2436.500   5.86852512e+01
  2437.000   5.86344693e+01
  2437.500   5.85837724e+01
  2438.000   5.85331603e+01
  2438.500   5.84826327e+01
  2439.000   5.84321896e+01
  2439.500   5.83818306e+01
  2440.000   5.83315557e+01
  2440.500   5.82813647e+01
  2441.000   5.82312574e+01
  2441.500   5.81812336e+01
  2442.000   5.81312930e+01
  2442.500   5.80814357e+01
  2443.000   5.80316613e+01
  2443.500   5.79819697e+01
  2444.000   5.79323608e+01
  2444.500   5.78828342e+01
  2445.000   5.78333900e+01
  2445.500   5.77840278e+01
  2446.000   5.77347476e+01
  2446.500   5.76855491e+01
  2447.000   5.76364322e+01
  2447.500   5.75873967e+01
  2448.000   5.75384424e+01
  2448.500   5.74895692e+01
  2449.000   5.74407768e+01
  2449.500   5.73920652e+01
  2450.000   5.73434342e+01
  2450.500   5.72948835e+01
  2451.000   5.72464130e+01
  2451.500   5.71980226e+01
  2452.000   5.71497121e+01
  2452.500   5.71014812e+01
  2453.000   5.70533299e+01
  2453.500   5.70052580e+01
  2454.000   5.69572653e+01
  2454.500   5.69093517e+01
  2455.000   5.68615169e+01
  2455.500   5.68137608e+01
  2456.000   5.67660833e+01
  2456.500   5.67184842e+01
  2457.000   5.66709634e+01
  2457.500   5.66235205e+01
  2458.000   5.65761556e+01
  2458.500   5.65288685e+01
  2459.000   5.64816589e+01
  2459.500   5.64345268e+01
  2460.000   5.63874719e+01
  2460.500   5.63404941e+01
  2461.000   5.62935933e+01
  2461.500   5.62467693e+01
  2462.000   5.62000219e+01
  2462.500   5.61533509e+01
  2463.000   5.61067563e+01
  2463.500   5.60602379e+01
  2464.000   5.60137954e+01
  2464.500   5.59674289e+01
  2465.000   5.59211380e+01
  2465.500   5.58749226e+01
  2466.000   5.58287827e+01
  2466.500   5.57827180e+01
  2467.000   5.57367283e+01
  2467.500   5.56908136e+01
  2468.000   5.56449737e+01
  2468.500   5.55992084e+01
  2469.000   5.55535176e+01
  2469.500   5.55079011e+01
  2470.000   5.54623588e+01
  2470.500   5.54168905e+01
  2471.000   5.53714961e+01
  2471.500   5.53261755e+01
  2472.000   5.52809284e+01
  2472.500   5.52357547e+01
  2473.000   5.51906544e+01
  2473.500   5.51456271e+01
  2474.000   5.51006729e+01
  2474.500   5.50557915e+01
  2475.000   5.50109828e+01
  2475.500   5.49662467e+01
  2476.000   5.49215830e+01
  2476.500   5.48769916e+01
  2477.000   5.48324723e+01
  2477.500   5.47880249e+01
  2478.000   5.47436494e+01
  2478.500   5.46993456e+01
  2479.000   5.46551134e+01
  2479.500   5.46109526e+01
  2480.000   5.45668630e+01
  2480.500   5.45228446e+01
  2481.000   5.44788972e+01
  2481.500   5.44350206e+01
  2482.000   5.43912148e+01
  2482.500   5.43474795e+01
  2483.000   5.43038146e+01
  2483.500   5.42602201e+01
  2484.000   5.42166957e+01
  2484.500   5.41732413e+01
  2485.000   5.41298568e+01
  2485.500   5.40865421e+01
  2486.000   5.40432970e+01
  2486.500   5.40001214e+01
  2487.000   5.39570151e+01
  2487.500   5.39139780e+01
  2488.000   5.38710100e+01
  2488.500   5.38281109e+01
  2489.000   5.37852807e+01
  2489.500   5.37425191e+01
  2490.000   5.36998260e+01
  2490.500   5.36572014e+01
  2491.000   5.36146450e+01
  2491.500   5.35721568e+01
  2492.000   5.35297366e+01
  2492.500   5.34873843e+01
  2493.000   5.34450998e+01
  2493.500   5.34028829e+01
  2494.000   5.33607334e+01
  2494.500   5.33186514e+01
  2495.000   5.32766366e+01
  2495.500   5.32346888e+01
  2496.000   5.31928081e+01
  2496.500   5.31509942e+01
  2497.000   5.31092471e+01
  2497.500   5.30675666e+01
  2498.000   5.30259525e+01
  2498.500   5.29844048e+01
  2499.000   5.29429233e+01
  2499.500   5.29015079e+01
  2500.000   5.28601585e+01
  2500.500   5.28188749e+01
  2501.000   5.27776570e+01
  2501.500   5.27365048e+01
  2502.000   5.26954180e+01
  2502.500   5.26543966e+01
  2503.000   5.26134405e+01
  2503.500   5.25725494e+01
  2504.000   5.25317233e+01
  2504.500   5.24909621e+01
  2505.000   5.24502657e+01
  2505.500   5.24096339e+01
  2506.000   5.23690666e+01
  2506.500   5.23285637e+01
  2507.000   5.22881250e+01
  2507.500   5.22477505e+01
  2508.000   5.22074401e+01
  2508.500   5.21671935e+01
  2509.000   5.21270107e+01
  2509.500   5.20868917e+01
  2510.000   5.20468362e+01
  2510.500   5.20068441e+01
  2511.000   5.19669153e+01
  2511.500   5.19270498e+01
  2512.000   5.18872474e+01
  2512.500   5.18475079e+01
  2513.000   5.18078313e+01
  2513.500   5.17682175e+01
  2514.000   5.17286663e+01
  2514.500   5.16891777e+01
  2515.000   5.16497514e+01
  2515.500   5.16103874e+01
  2516.000   5.15710857e+01
  2516.500   5.15318459e+01
  2517.000   5.14926682e+01
  2517.500   5.14535523e+01
  2518.000   5.14144981e+01
  2518.500   5.13755056e+01
  2519.000   5.13365746e+01
  2519.500   5.12977050e+01
  2520.000   5.12588967e+01
  2520.500   5.12201495e+01
  2521.000   5.11814635e+01
  2521.500   5.11428384e+01
  2522.000   5.11042741e+01
  2522.500   5.10657707e+01
  2523.000   5.10273278e+01
  2523.500   5.09889455e+01
  2524.000   5.09506236e+01
  2524.500   5.09123621e+01
  2525.000   5.08741607e+01
  2525.500   5.08360195e+01
  2526.000   5.07979383e+01
  2526.500   5.07599169e+01
  2527.000   5.07219554e+01
  2527.500   5.06840535e+01
  2528.000   5.06462112e+01
  2528.500   5.06084284e+01
  2529.000   5.05707050e+01
  2529.500   5.05330409e+01
  2530.000   5.04954359e+01
  2530.500   5.04578900e+01
  2531.000   5.04204030e+01
  2531.500   5.03829749e+01
  2532.000   5.03456055e+01
  2532.500   5.03082949e+01
  2533.000   5.02710427e+01
  2533.500   5.02338490e+01
  2534.000   5.01967137e+01
  2534.500   5.01596367e+01
  2535.000   5.01226177e+01
  2535.500   5.00856569e+01
  2536.000   5.00487540e+01
  2536.500   5.00119089e+01
  2537.000   4.99751216e+01
  2537.500   4.99383920e+01
  2538.000   4.99017199e+01
  2538.500   4.98651053e+01
  2539.000   4.98285480e+01
  2539.500   4.97920481e+01
  2540.000   4.97556053e+01
  2540.500   4.97192195e+01
  2541.000   4.96828908e+01
  2541.500   4.96466189e+01
  2542.000   4.96104038e+01
  2542.500   4.95742454e+01
  2543.000   4.95381437e+01
  2543.500   4.95020984e+01
  2544.000   4.94661095e+01
  2544.500   4.94301769e+01
  2545.000   4.93943006e+01
  2545.500   4.93584804e+01
  2546.000   4.93227162e+01
  2546.500   4.92870080e+01
  2547.000   4.92513556e+01
  2547.500   4.92157590e+01
  2548.000   4.91802181e+01
  2548.500   4.91447327e+01
  2549.000   4.91093028e+01
  2549.500   4.90739283e+01
  2550.000   4.90386091e+01
  2550.500   4.90033451e+01
  2551.000   4.89681363e+01
  2551.500   4.89329825e+01
  2552.000   4.88978836e+01
  2552.500   4.88628396e+01
  2553.000   4.88278503e+01
  2553.500   4.87929157e+01
  2554.000   4.87580357e+01
  2554.500   4.87232103e+01
  2555.000   4.86884392e+01
  2555.500   4.86537224e+01
  2556.000   4.86190599e+01
  2556.500   4.85844516e+01
  2557.000   4.85498973e+01
  2557.500   4.85153970e+01
  2558.000   4.84809506e+01
  2558.500   4.84465580e+01
  2559.000   4.84122192e+01
  2559.500   4.83779339e+01
  2560.000   4.83437023e+01
  2560.500   4.83095241e+01
  2561.000   4.82753993e+01
  2561.500   4.82413278e+01
  2562.000   4.82073095e+01
  2562.500   4.81733443e+01
  2563.000   4.81394323e+01
  2563.500   4.81055731e+01
  2564.000   4.80717669e+01
  2564.500   4.80380135e+01
  2565.000   4.80043128e+01
  2565.500   4.79706648e+01
  2566.000   4.79370693e+01
  2566.500   4.79035263e+01
  2567.000   4.78700357e+01
  2567.500   4.78365974e+01
  2568.000   4.78032114e+01
  2568.500   4.77698775e+01
  2569.000   4.77365957e+01
  2569.500   4.77033659e+01
  2570.000   4.76701881e+01
  2570.500   4.76370621e+01
  2571.000   4.76039878e+01
  2571.500   4.75709653e+01
  2572.000   4.75379943e+01
  2572.500   4.75050749e+01
  2573.000   4.74722070e+01
  2573.500   4.74393904e+01
  2574.000   4.74066252e+01
  2574.500   4.73739112e+01
  2575.000   4.73412483e+01
  2575.500   4.73086365e+01
  2576.000   4.72760757e+01
  2576.500   4.72435658e+01
  2577.000   4.72111068e+01
  2577.500   4.71786986e+01
  2578.000   4.71463410e+01
  2578.500   4.71140341e+01
  2579.000   4.70817778e+01
  2579.500   4.70495719e+01
  2580.000   4.70174164e+01
  2580.500   4.69853113e+01
  2581.000   4.69532564e+01
  2581.500   4.69212518e+01
  2582.000   4.68892972e+01
  2582.500   4.68573927e+01
  2583.000   4.68255381e+01
  2583.500   4.67937335e+01
  2584.000   4.67619787e+01
  2584.500   4.67302736e+01
  2585.000   4.66986183e+01
  2585.500   4.66670126e+01
  2586.000   4.66354564e+01
  2586.500   4.66039497e+01
  2587.000   4.65724924e+01
  2587.500   4.65410844e+01
  2588.000   4.65097257e+01
  2588.500   4.64784163e+01
  2589.000   4.64471559e+01
  2589.500   4.64159446e+01
  2590.000   4.63847824e+01
  2590.500   4.63536690e+01
  2591.000   4.63226046e+01
  2591.500   4.62915889e+01
  2592.000   4.62606219e+01
  2592.500   4.62297036e+01
  2593.000   4.61988340e+01
  2593.500   4.61680128e+01
  2594.000   4.61372401e+01
  2594.500   4.61065158e+01
  2595.000   4.60758399e+01
  2595.500   4.60452122e+01
  2596.000   4.60146327e+01
  2596.500   4.59841014e+01
  2597.000   4.59536181e+01
  2597.500   4.59231829e+01
  2598.000   4.58927956e+01
  2598.500   4.58624562e+01
  2599.000   4.58321646e+01
  2599.500   4.58019208e+01
  2600.000   4.57717247e+01
  2600.500   4.57415762e+01
  2601.000   4.57114753e+01
  2601.500   4.56814219e+01
  2602.000   4.56514159e+01
  2602.500   4.56214574e+01
  2603.000   4.55915461e+01
  2603.500   4.55616822e+01
  2604.000   4.55318654e+01
  2604.500   4.55020958e+01
  2605.000   4.54723733e+01
  2605.500   4.54426978e+01
  2606.000   4.54130693e+01
  2606.500   4.53834877e+01
  2607.000   4.53539529e+01
  2607.500   4.53244649e+01
  2608.000   4.52950237e+01
  2608.500   4.52656291e+01
  2609.000   4.52362811e+01
  2609.500   4.52069797e+01
  2610.000   4.51777248e+01
  2610.500   4.51485164e+01
  2611.000   4.51193543e+01
  2611.500   4.50902386e+01
  2612.000   4.50611691e+01
  2612.500   4.50321459e+01
  2613.000   4.50031688e+01
  2613.500   4.49742379e+01
  2614.000   4.49453529e+01
  2614.500   4.49165140e+01
  2615.000   4.48877210e+01
  2615.500   4.48589740e+01
  2616.000   4.48302727e+01
  2616.500   4.48016172e+01
  2617.000   4.47730075e+01
  2617.500   4.47444434e+01
  2618.000   4.47159249e+01
  2618.500   4.46874520e+01
  2619.000   4.46590246e+01
  2619.500   4.46306427e+01
  2620.000   4.46023062e+01
  2620.500   4.45740151e+01
  2621.000   4.45457692e+01
  2621.500   4.45175686e+01
  2622.000   4.44894132e+01
  2622.500   4.44613030e+01
  2623.000   4.44332378e+01
  2623.500   4.44052177e+01
  2624.000   4.43772426e+01
  2624.500   4.43493125e+01
  2625.000   4.43214272e+01
  2625.500   4.42935868e+01
  2626.000   4.42657912e+01
  2626.500   4.42380404e+01
  2627.000   4.42103342e+01
  2627.500   4.41826728e+01
  2628.000   4.41550559e+01
  2628.500   4.41274836e+01
  2629.000   4.40999558e+01
  2629.500   4.40724724e+01
  2630.000   4.40450335e+01
  2630.500   4.40176389e+01
  2631.000   4.39902887e+01
  2631.500   4.39629828e+01
  2632.000   4.39357210e+01
  2632.500   4.39085035e+01
  2633.000   4.38813301e+01
  2633.500   4.38542008e+01
  2634.000   4.38271156e+01
  2634.500   4.38000743e+01
  2635.000   4.37730770e+01
  2635.500   4.37461237e+01
  2636.000   4.37192142e+01
  2636.500   4.36923485e+01
  2637.000   4.36655266e+01
  2637.500   4.36387485e+01
  2638.000   4.36120141e+01
  2638.500   4.35853233e+01
  2639.000   4.35586761e+01
  2639.500   4.35320725e+01
  2640.000   4.35055124e+01
  2640.500   4.34789959e+01
  2641.000   4.34525227e+01
  2641.500   4.34260930e+01
  2642.000   4.33997066e+01
  2642.500   4.33733636e+01
  2643.000   4.33470638e+01
  2643.500   4.33208073e+01
  2644.000   4.32945940e+01
  2644.500   4.32684238e+01
  2645.000   4.32422968e+01
  2645.500   4.32162128e+01
  2646.000   4.31901719e+01
  2646.500   4.31641740e+01
  2647.000   4.31382191e+01
  2647.500   4.31123071e+01
  2648.000   4.30864380e+01
  2648.500   4.30606118e+01
  2649.000   4.30348284e+01
  2649.500   4.30090877e+01
  2650.000   4.29833898e+01
  2650.500   4.29577346e+01
  2651.000   4.29321221e+01
  2651.500   4.29065522e+01
  2652.000   4.28810249e+01
  2652.500   4.28555402e+01
  2653.000   4.28300980e+01
  2653.500   4.28046983e+01
  2654.000   4.27793411e+01
  2654.500   4.27540262e+01
  2655.000   4.27287538e+01
  2655.500   4.27035238e+01
  2656.000   4.26783360e+01
  2656.500   4.26531906e+01
  2657.000   4.26280874e+01
  2657.500   4.26030264e+01
  2658.000   4.25780076e+01
  2658.500   4.25530310e+01
  2659.000   4.25280965e+01
  2659.500   4.25032041e+01
  2660.000   4.24783538e+01
  2660.500   4.24535454e+01
  2661.000   4.24287791e+01
  2661.500   4.24040548e+01
  2662.000   4.23793724e+01
  2662.500   4.23547319e+01
  2663.000   4.23301333e+01
  2663.500   4.23055766e+01
  2664.000   4.22810617e+01
  2664.500   4.22565885e+01
  2665.000   4.22321572e+01
  2665.500   4.22077675e+01
  2666.000   4.21834196e+01
  2666.500   4.21591134e+01
  2667.000   4.21348488e+01
  2667.500   4.21106258e+01
  2668.000   4.20864444e+01
  2668.500   4.20623046e+01
  2669.000   4.20382063e+01
  2669.500   4.20141496e+01
  2670.000   4.19901343e+01
  2670.500   4.19661605e+01
  2671.000   4.19422282e+01
  2671.500   4.19183373e+01
  2672.000   4.18944877e+01
  2672.500   4.18706795e+01
  2673.000   4.18469127e+01
  2673.500   4.18231871e+01
  2674.000   4.17995029e+01
  2674.500   4.17758599e+01
  2675.000   4.17522582e+01
  2675.500   4.17286977e+01
  2676.000   4.17051784e+01
  2676.500   4.16817003e+01
  2677.000   4.16582633e+01
  2677.500   4.16348675e+01
  2678.000   4.16115128e+01
  2678.500   4.15881991e+01
  2679.000   4.15649266e+01
  2679.500   4.15416951e+01
  2680.000   4.15185046e+01
  2680.500   4.14953551e+01
  2681.000   4.14722466e+01
  2681.500   4.14491791e+01
  2682.000   4.14261525e+01
  2682.500   4.14031669e+01
  2683.000   4.13802221e+01
  2683.500   4.13573183e+01
  2684.000   4.13344553e+01
  2684.500   4.13116332e+01
  2685.000   4.12888520e+01
  2685.500   4.12661115e+01
  2686.000   4.12434119e+01
  2686.500   4.12207530e+01
  2687.000   4.11981350e+01
  2687.500   4.11755576e+01
  2688.000   4.11530211e+01
  2688.500   4.11305252e+01
  2689.000   4.11080700e+01
  2689.500   4.10856556e+01
  2690.000   4.10632818e+01
  2690.500   4.10409487e+01
  2691.000   4.10186563e+01
  2691.500   4.09964045e+01
  2692.000   4.09741933e+01
  2692.500   4.09520227e+01
  2693.000   4.09298927e+01
  2693.500   4.09078033e+01
  2694.000   4.08857545e+01
  2694.500   4.08637462e+01
  2695.000   4.08417785e+01
  2695.500   4.08198514e+01
  2696.000   4.07979647e+01
  2696.500   4.07761186e+01
  2697.000   4.07543130e+01
  2697.500   4.07325479e+01
  2698.000   4.07108233e+01
  2698.500   4.06891392e+01
  2699.000   4.06674955e+01
  2699.500   4.06458923e+01
  2700.000   4.06243295e+01
  2700.500   4.06028072e+01
  2701.000   4.05813253e+01
  2701.500   4.05598839e+01
  2702.000   4.05384829e+01
  2702.500   4.05171223e+01
  2703.000   4.04958021e+01
  2703.500   4.04745223e+01
  2704.000   4.04532829e+01
  2704.500   4.04320839e+01
  2705.000   4.04109253e+01
  2705.500   4.03898071e+01
  2706.000   4.03687292e+01
  2706.500   4.03476917e+01
  2707.000   4.03266946e+01
  2707.500   4.03057379e+01
  2708.000   4.02848215e+01
  2708.500   4.02639455e+01
  2709.000   4.02431098e+01
  2709.500   4.02223145e+01
  2710.000   4.02015596e+01
  2710.500   4.01808450e+01
  2711.000   4.01601707e+01
  2711.500   4.01395368e+01
  2712.000   4.01189433e+01
  2712.500   4.00983901e+01
  2713.000   4.00778772e+01
  2713.500   4.00574048e+01
  2714.000   4.00369726e+01
  2714.500   4.00165808e+01
  2715.000   3.99962294e+01
  2715.500   3.99759183e+01
  2716.000   3.99556476e+01
  2716.500   3.99354172e+01
  2717.000   3.99152273e+01
  2717.500   3.98950776e+01
  2718.000   3.98749684e+01
  2718.500   3.98548995e+01
  2719.000   3.98348710e+01
  2719.500   3.98148829e+01
  2720.000   3.97949352e+01
  2720.500   3.97750279e+01
  2721.000   3.97551610e+01
  2721.500   3.97353345e+01
  2722.000   3.97155484e+01
  2722.500   3.96958027e+01
  2723.000   3.96760975e+01
  2723.500   3.96564327e+01
  2724.000   3.96368083e+01
  2724.500   3.96172245e+01
  2725.000   3.95976810e+01
  2725.500   3.95781781e+01
  2726.000   3.95587156e+01
  2726.500   3.95392936e+01
  2727.000   3.95199121e+01
  2727.500   3.95005712e+01
  2728.000   3.94812708e+01
  2728.500   3.94620109e+01
  2729.000   3.94427915e+01
  2729.500   3.94236127e+01
  2730.000   3.94044745e+01
  2730.500   3.93853769e+01
  2731.000   3.93663199e+01
  2731.500   3.93473035e+01
  2732.000   3.93283278e+01
  2732.500   3.93093926e+01
  2733.000   3.92904982e+01
  2733.500   3.92716444e+01
  2734.000   3.92528313e+01
  2734.500   3.92340590e+01
  2735.000   3.92153273e+01
  2735.500   3.91966364e+01
  2736.000   3.91779863e+01
  2736.500   3.91593769e+01
  2737.000   3.91408084e+01
  2737.500   3.91222806e+01
  2738.000   3.91037937e+01
  2738.500   3.90853477e+01
  2739.000   3.90669425e+01
  2739.500   3.90485783e+01
  2740.000   3.90302549e+01
  2740.500   3.90119725e+01
  2741.000   3.89937311e+01
  2741.500   3.89755306e+01
  2742.000   3.89573712e+01
  2742.500   3.89392528e+01
  2743.000   3.89211754e+01
  2743.500   3.89031392e+01
  2744.000   3.88851440e+01
  2744.500   3.88671900e+01
  2745.000   3.88492771e+01
  2745.500   3.88314054e+01
  2746.000   3.88135750e+01
  2746.500   3.87957857e+01
  2747.000   3.87780378e+01
  2747.500   3.87603311e+01
  2748.000   3.87426657e+01
  2748.500   3.87250417e+01
  2749.000   3.87074591e+01
  2749.500   3.86899179e+01
  2750.000   3.86724181e+01
  2750.500   3.86549598e+01
  2751.000   3.86375430e+01
  2751.500   3.86201678e+01
  2752.000   3.86028341e+01
  2752.500   3.85855420e+01
  2753.000   3.85682915e+01
  2753.500   3.85510828e+01
  2754.000   3.85339157e+01
  2754.500   3.85167903e+01
  2755.000   3.84997068e+01
  2755.500   3.84826650e+01
  2756.000   3.84656651e+01
  2756.500   3.84487070e+01
  2757.000   3.84317909e+01
  2757.500   3.84149168e+01
  2758.000   3.83980846e+01
  2758.500   3.83812945e+01
  2759.000   3.83645464e+01
  2759.500   3.83478405e+01
  2760.000   3.83311767e+01
  2760.500   3.83145552e+01
  2761.000   3.82979758e+01
  2761.500   3.82814388e+01
  2762.000   3.82649440e+01
  2762.500   3.82484917e+01
  2763.000   3.82320817e+01
  2763.500   3.82157142e+01
  2764.000   3.81993892e+01
  2764.500   3.81831068e+01
  2765.000   3.81668669e+01
  2765.500   3.81506697e+01
  2766.000   3.81345152e+01
  2766.500   3.81184034e+01
  2767.000   3.81023344e+01
  2767.500   3.80863083e+01
  2768.000   3.80703250e+01
  2768.500   3.80543846e+01
  2769.000   3.80384873e+01
  2769.500   3.80226329e+01
  2770.000   3.80068217e+01
  2770.500   3.79910536e+01
  2771.000   3.79753287e+01
  2771.500   3.79596471e+01
  2772.000   3.79440087e+01
  2772.500   3.79284137e+01
  2773.000   3.79128622e+01
  2773.500   3.78973541e+01
  2774.000   3.78818895e+01
  2774.500   3.78664685e+01
  2775.000   3.78510912e+01
  2775.500   3.78357575e+01
  2776.000   3.78204677e+01
  2776.500   3.78052216e+01
  2777.000   3.77900195e+01
  2777.500   3.77748613e+01
  2778.000   3.77597471e+01
  2778.500   3.77446769e+01
  2779.000   3.77296509e+01
  2779.500   3.77146692e+01
  2780.000   3.76997316e+01
  2780.500   3.76848384e+01
  2781.000   3.76699896e+01
  2781.500   3.76551853e+01
  2782.000   3.76404255e+01
  2782.500   3.76257103e+01
  2783.000   3.76110398e+01
  2783.500   3.75964140e+01
  2784.000   3.75818331e+01
  2784.500   3.75672970e+01
  2785.000   3.75528059e+01
  2785.500   3.75383598e+01
  2786.000   3.75239588e+01
  2786.500   3.75096030e+01
  2787.000   3.74952924e+01
  2787.500   3.74810272e+01
  2788.000   3.74668074e+01
  2788.500   3.74526330e+01
  2789.000   3.74385043e+01
  2789.500   3.74244211e+01
  2790.000   3.74103837e+01
  2790.500   3.73963921e+01
  2791.000   3.73824464e+01
  2791.500   3.73685466e+01
  2792.000   3.73546929e+01
  2792.500   3.73408853e+01
  2793.000   3.73271240e+01
  2793.500   3.73134089e+01
  2794.000   3.72997403e+01
  2794.500   3.72861181e+01
  2795.000   3.72725425e+01
  2795.500   3.72590135e+01
  2796.000   3.72455313e+01
  2796.500   3.72320959e+01
  2797.000   3.72187074e+01
  2797.500   3.72053660e+01
  2798.000   3.71920717e+01
  2798.500   3.71788245e+01
  2799.000   3.71656247e+01
  2799.500   3.71524723e+01
  2800.000   3.71393674e+01
  2800.500   3.71263100e+01
  2801.000   3.71133004e+01
  2801.500   3.71003385e+01
  2802.000   3.70874246e+01
  2802.500   3.70745586e+01
  2803.000   3.70617407e+01
  2803.500   3.70489711e+01
  2804.000   3.70362497e+01
  2804.500   3.70235768e+01
  2805.000   3.70109523e+01
  2805.500   3.69983765e+01
  2806.000   3.69858494e+01
  2806.500   3.69733712e+01
  2807.000   3.69609419e+01
  2807.500   3.69485616e+01
  2808.000   3.69362306e+01
  2808.500   3.69239488e+01
  2809.000   3.69117165e+01
  2809.500   3.68995336e+01
  2810.000   3.68874004e+01
  2810.500   3.68753170e+01
  2811.000   3.68632834e+01
  2811.500   3.68512998e+01
  2812.000   3.68393663e+01
  2812.500   3.68274831e+01
  2813.000   3.68156502e+01
  2813.500   3.68038678e+01
  2814.000   3.67921360e+01
  2814.500   3.67804549e+01
  2815.000   3.67688248e+01
  2815.500   3.67572456e+01
  2816.000   3.67457175e+01
  2816.500   3.67342406e+01
  2817.000   3.67228152e+01
  2817.500   3.67114413e+01
  2818.000   3.67001190e+01
  2818.500   3.66888485e+01
  2819.000   3.66776300e+01
  2819.500   3.66664635e+01
  2820.000   3.66553492e+01
  2820.500   3.66442873e+01
  2821.000   3.66332778e+01
  2821.500   3.66223210e+01
  2822.000   3.66114170e+01
  2822.500   3.66005658e+01
  2823.000   3.65897678e+01
  2823.500   3.65790230e+01
  2824.000   3.65683315e+01
  2824.500   3.65576936e+01
  2825.000   3.65471093e+01
  2825.500   3.65365788e+01
  2826.000   3.65261024e+01
  2826.500   3.65156801e+01
  2827.000   3.65053121e+01
  2827.500   3.64949985e+01
  2828.000   3.64847395e+01
  2828.500   3.64745354e+01
  2829.000   3.64643862e+01
  2829.500   3.64542921e+01
  2830.000   3.64442532e+01
  2830.500   3.64342698e+01
  2831.000   3.64243421e+01
  2831.500   3.64144701e+01
  2832.000   3.64046541e+01
  2832.500   3.63948942e+01
  2833.000   3.63851906e+01
  2833.500   3.63755435e+01
  2834.000   3.63659531e+01
  2834.500   3.63564196e+01
  2835.000   3.63469430e+01
  2835.500   3.63375237e+01
  2836.000   3.63281618e+01
  2836.500   3.63188575e+01
  2837.000   3.63096109e+01
  2837.500   3.63004223e+01
  2838.000   3.62912919e+01
  2838.500   3.62822199e+01
  2839.000   3.62732063e+01
  2839.500   3.62642516e+01
  2840.000   3.62553558e+01
  2840.500   3.62465191e+01
  2841.000   3.62377418e+01
  2841.500   3.62290240e+01
  2842.000   3.62203660e+01
  2842.500   3.62117680e+01
  2843.000   3.62032302e+01
  2843.500   3.61947527e+01
  2844.000   3.61863359e+01
  2844.500   3.61779799e+01
  2845.000   3.61696849e+01
  2845.500   3.61614512e+01
  2846.000   3.61532790e+01
  2846.500   3.61451685e+01
  2847.000   3.61371200e+01
  2847.500   3.61291336e+01
  2848.000   3.61212096e+01
  2848.500   3.61133482e+01
  2849.000   3.61055497e+01
  2849.500   3.60978142e+01
  2850.000   3.60901422e+01
  2850.500   3.60825337e+01
  2851.000   3.60749890e+01
  2851.500   3.60675083e+01
  2852.000   3.60600920e+01
  2852.500   3.60527403e+01
  2853.000   3.60454534e+01
  2853.500   3.60382315e+01
  2854.000   3.60310750e+01
  2854.500   3.60239840e+01
  2855.000   3.60169589e+01
  2855.500   3.60099999e+01
  2856.000   3.60031073e+01
  2856.500   3.59962813e+01
  2857.000   3.59895222e+01
  2857.500   3.59828303e+01
  2858.000   3.59762059e+01
  2858.500   3.59696493e+01
  2859.000   3.59631606e+01
  2859.500   3.59567403e+01
  2860.000   3.59503885e+01
  2860.500   3.59441057e+01
  2861.000   3.59378920e+01
  2861.500   3.59317477e+01
  2862.000   3.59256733e+01
  2862.500   3.59196689e+01
  2863.000   3.59137349e+01
  2863.500   3.59078715e+01
  2864.000   3.59020792e+01
  2864.500   3.58963581e+01
  2865.000   3.58907087e+01
  2865.500   3.58851311e+01
  2866.000   3.58796259e+01
  2866.500   3.58741932e+01
  2867.000   3.58688333e+01
  2867.500   3.58635467e+01
  2868.000   3.58583337e+01
  2868.500   3.58531946e+01
  2869.000   3.58481297e+01
  2869.500   3.58431393e+01
  2870.000   3.58382239e+01
  2870.500   3.58333838e+01
  2871.000   3.58286193e+01
  2871.500   3.58239307e+01
  2872.000   3.58193185e+01
  2872.500   3.58147830e+01
  2873.000   3.58103246e+01
  2873.500   3.58059436e+01
  2874.000   3.58016404e+01
  2874.500   3.57974153e+01
  2875.000   3.57932689e+01
  2875.500   3.57892014e+01
  2876.000   3.57852132e+01
  2876.500   3.57813047e+01
  2877.000   3.57774764e+01
  2877.500   3.57737286e+01
  2878.000   3.57700617e+01
  2878.500   3.57664761e+01
  2879.000   3.57629723e+01
  2879.500   3.57595507e+01
  2880.000   3.57562116e+01
  2880.500   3.57529555e+01
  2881.000   3.57497829e+01
  2881.500   3.57466941e+01
  2882.000   3.57436896e+01
  2882.500   3.57407698e+01
  2883.000   3.57379353e+01
  2883.500   3.57351863e+01
  2884.000   3.57325235e+01
  2884.500   3.57299472e+01
  2885.000   3.57274579e+01
  2885.500   3.57250560e+01
  2886.000   3.57227422e+01
  2886.500   3.57205167e+01
  2887.000   3.57183802e+01
  2887.500   3.57163331e+01
  2888.000   3.57143758e+01
  2888.500   3.57125090e+01
  2889.000   3.57107330e+01
  2889.500   3.57090485e+01
  2890.000   3.57074559e+01
  2890.500   3.57059557e+01
  2891.000   3.57045484e+01
  2891.500   3.57032347e+01
  2892.000   3.57020149e+01
  2892.500   3.57008898e+01
  2893.000   3.56998597e+01
  2893.500   3.56989253e+01
  2894.000   3.56980871e+01
  2894.500   3.56973458e+01
  2895.000   3.56967017e+01
  2895.500   3.56961557e+01
  2896.000   3.56957081e+01
  2896.500   3.56953596e+01
  2897.000   3.56951109e+01
  2897.500   3.56949624e+01
  2898.000   3.56949149e+01
  2898.500   3.56949689e+01
  2899.000   3.56951250e+01
  2899.500   3.56953839e+01
  2900.000   3.56957463e+01
  2900.500   3.56962127e+01
  2901.000   3.56967838e+01
  2901.500   3.56974603e+01
  2902.000   3.56982428e+01
  2902.500   3.56991320e+01
  2903.000   3.57001285e+01
  2903.500   3.57012332e+01
  2904.000   3.57024466e+01
  2904.500   3.57037695e+01
  2905.000   3.57052026e+01
  2905.500   3.57067465e+01
  2906.000   3.57084021e+01
  2906.500   3.57101701e+01
  2907.000   3.57120511e+01
  2907.500   3.57140460e+01
  2908.000   3.57161555e+01
  2908.500   3.57183804e+01
  2909.000   3.57207215e+01
  2909.500   3.57231795e+01
  2910.000   3.57257553e+01
  2910.500   3.57284496e+01
  2911.000   3.57312633e+01
  2911.500   3.57341972e+01
  2912.000   3.57372522e+01
  2912.500   3.57404290e+01
  2913.000   3.57437286e+01
  2913.500   3.57471517e+01
  2914.000   3.57506994e+01
  2914.500   3.57543724e+01
  2915.000   3.57581717e+01
  2915.500   3.57620982e+01
  2916.000   3.57661527e+01
  2916.500   3.57703363e+01
  2917.000   3.57746499e+01
  2917.500   3.57790943e+01
  2918.000   3.57836707e+01
  2918.500   3.57883800e+01
  2919.000   3.57932231e+01
  2919.500   3.57982011e+01
  2920.000   3.58033149e+01
  2920.500   3.58085657e+01
  2921.000   3.58139544e+01
  2921.500   3.58194822e+01
  2922.000   3.58251500e+01
  2922.500   3.58309589e+01
  2923.000   3.58369102e+01
  2923.500   3.58430047e+01
  2924.000   3.58492438e+01
  2924.500   3.58556285e+01
  2925.000   3.58621600e+01
  2925.500   3.58688395e+01
  2926.000   3.58756681e+01
  2926.500   3.58826470e+01
  2927.000   3.58897775e+01
  2927.500   3.58970608e+01
  2928.000   3.59044981e+01
  2928.500   3.59120907e+01
  2929.000   3.59198399e+01
  2929.500   3.59277470e+01
  2930.000   3.59358133e+01
  2930.500   3.59440402e+01
  2931.000   3.59524289e+01
  2931.500   3.59609809e+01
  2932.000   3.59696976e+01
  2932.500   3.59785804e+01
  2933.000   3.59876306e+01
  2933.500   3.59968498e+01
  2934.000   3.60062395e+01
  2934.500   3.60158011e+01
  2935.000   3.60255361e+01
  2935.500   3.60354460e+01
  2936.000   3.60455325e+01
  2936.500   3.60557971e+01
  2937.000   3.60662414e+01
  2937.500   3.60768670e+01
  2938.000   3.60876756e+01
  2938.500   3.60986689e+01
  2939.000   3.61098484e+01
  2939.500   3.61212161e+01
  2940.000   3.61327735e+01
  2940.500   3.61445225e+01
  2941.000   3.61564649e+01
  2941.500   3.61686025e+01
  2942.000   3.61809372e+01
  2942.500   3.61934707e+01
  2943.000   3.62062051e+01
  2943.500   3.62191423e+01
  2944.000   3.62322842e+01
  2944.500   3.62456328e+01
  2945.000   3.62591901e+01
  2945.500   3.62729583e+01
  2946.000   3.62869393e+01
  2946.500   3.63011354e+01
  2947.000   3.63155486e+01
  2947.500   3.63301812e+01
  2948.000   3.63450353e+01
  2948.500   3.63601132e+01
  2949.000   3.63754172e+01
  2949.500   3.63909496e+01
  2950.000   3.64067128e+01
  2950.500   3.64227091e+01
  2951.000   3.64389411e+01
  2951.500   3.64554111e+01
  2952.000   3.64721216e+01
  2952.500   3.64890754e+01
  2953.000   3.65062748e+01
  2953.500   3.65237226e+01
  2954.000   3.65414213e+01
  2954.500   3.65593739e+01
  2955.000   3.65775829e+01
  2955.500   3.65960512e+01
  2956.000   3.66147816e+01
  2956.500   3.66337770e+01
  2957.000   3.66530405e+01
  2957.500   3.66725748e+01
  2958.000   3.66923832e+01
  2958.500   3.67124686e+01
  2959.000   3.67328343e+01
  2959.500   3.67534833e+01
  2960.000   3.67744189e+01
  2960.500   3.67956444e+01
  2961.000   3.68171632e+01
  2961.500   3.68389785e+01
  2962.000   3.68610940e+01
  2962.500   3.68835130e+01
  2963.000   3.69062392e+01
  2963.500   3.69292762e+01
  2964.000   3.69526275e+01
  2964.500   3.69762970e+01
  2965.000   3.70002885e+01
  2965.500   3.70246057e+01
  2966.000   3.70492527e+01
  2966.500   3.70742333e+01
  2967.000   3.70995516e+01
  2967.500   3.71252118e+01
  2968.000   3.71512180e+01
  2968.500   3.71775743e+01
  2969.000   3.72042852e+01
  2969.500   3.72313549e+01
  2970.000   3.72587879e+01
  2970.500   3.72865886e+01
  2971.000   3.73147617e+01
  2971.500   3.73433118e+01
  2972.000   3.73722434e+01
  2972.500   3.74015615e+01
  2973.000   3.74312709e+01
  2973.500   3.74613763e+01
  2974.000   3.74918829e+01
  2974.500   3.75227956e+01
  2975.000   3.75541196e+01
  2975.500   3.75858599e+01
  2976.000   3.76180220e+01
  2976.500   3.76506109e+01
  2977.000   3.76836322e+01
  2977.500   3.77170912e+01
  2978.000   3.77509935e+01
  2978.500   3.77853447e+01
  2979.000   3.78201502e+01
  2979.500   3.78554159e+01
  2980.000   3.78911475e+01
  2980.500   3.79273507e+01
  2981.000   3.79640315e+01
  2981.500   3.80011957e+01
  2982.000   3.80388493e+01
  2982.500   3.80769982e+01
  2983.000   3.81156486e+01
  2983.500   3.81548065e+01
  2984.000   3.81944779e+01
  2984.500   3.82346691e+01
  2985.000   3.82753862e+01
  2985.500   3.83166354e+01
  2986.000   3.83584228e+01
  2986.500   3.84007547e+01
  2987.000   3.84436373e+01
  2987.500   3.84870767e+01
  2988.000   3.85310791e+01
  2988.500   3.85756507e+01
  2989.000   3.86207975e+01
  2989.500   3.86665256e+01
  2990.000   3.87128410e+01
  2990.500   3.87597497e+01
  2991.000   3.88072574e+01
  2991.500   3.88553700e+01
  2992.000   3.89040931e+01
  2992.500   3.89534322e+01
  2993.000   3.90033926e+01
  2993.500   3.90539797e+01
  2994.000   3.91051983e+01
  2994.500   3.91570535e+01
  2995.000   3.92095498e+01
  2995.500   3.92626916e+01
  2996.000   3.93164830e+01
  2996.500   3.93709279e+01
  2997.000   3.94260298e+01
  2997.500   3.94817920e+01
  2998.000   3.95382172e+01
  2998.500   3.95953080e+01
  2999.000   3.96530664e+01
  2999.500   3.97114938e+01
